#Digilent WaveForms Oscilloscope Acquisition
#Device Name: EExplorer
#Serial Number: SN:210151450455
#Date Time: 2019-02-01 09:32:42.824
#Sample rate: 2e+06Hz
#Samples: 8192
#Trigger: Source: Channel 1 Type: Edge Condition: Either Level: 0 V Hyst.: Auto HoldOff: 0 s
#Channel 1: Range: 200 mV/div Offset: 0 V
#Wavegen Channel 1: Running
#Mode: Simple
#Type: DC
#Offset: 0 V

Calibration
Zero DC offset
Measured: ~-130mV
Time (s),Channel 1 (V)
0.0007685,-0.118732
0.000769,-0.127324
0.0007695,-0.125176
0.00077,-0.123028
0.0007705,-0.125176
0.000771,-0.123028
0.0007715,-0.13162
0.000772,-0.12088
0.0007725,-0.127324
0.000773,-0.129472
0.0007735,-0.13162
0.000774,-0.123028
0.0007745,-0.123028
0.000775,-0.127324
0.0007755,-0.12088
0.000776,-0.127324
0.0007765,-0.12088
0.000777,-0.13162
0.0007775,-0.123028
0.000778,-0.127324
0.0007785,-0.118732
0.000779,-0.129472
0.0007795,-0.125176
0.00078,-0.123028
0.0007805,-0.116583
0.000781,-0.127324
0.0007815,-0.129472
0.000782,-0.125176
0.0007825,-0.125176
0.000783,-0.127324
0.0007835,-0.13162
0.000784,-0.12088
0.0007845,-0.125176
0.000785,-0.123028
0.0007855,-0.13162
0.000786,-0.123028
0.0007865,-0.125176
0.000787,-0.123028
0.0007875,-0.127324
0.000788,-0.125176
0.0007885,-0.123028
0.000789,-0.135916
0.0007895,-0.127324
0.00079,-0.13162
0.0007905,-0.118732
0.000791,-0.129472
0.0007915,-0.127324
0.000792,-0.133768
0.0007925,-0.127324
0.000793,-0.129472
0.0007935,-0.127324
0.000794,-0.125176
0.0007945,-0.127324
0.000795,-0.125176
0.0007955,-0.129472
0.000796,-0.123028
0.0007965,-0.127324
0.000797,-0.12088
0.0007975,-0.13162
0.000798,-0.123028
0.0007985,-0.127324
0.000799,-0.125176
0.0007995,-0.129472
0.0008,-0.123028
0.0008005,-0.127324
0.000801,-0.13162
0.0008015,-0.127324
0.000802,-0.13162
0.0008025,-0.123028
0.000803,-0.125176
0.0008035,-0.127324
0.000804,-0.127324
0.0008045,-0.125176
0.000805,-0.125176
0.0008055,-0.129472
0.000806,-0.127324
0.0008065,-0.129472
0.000807,-0.123028
0.0008075,-0.127324
0.000808,-0.123028
0.0008085,-0.13162
0.000809,-0.123028
0.0008095,-0.13162
0.00081,-0.118732
0.0008105,-0.127324
0.000811,-0.123028
0.0008115,-0.127324
0.000812,-0.125176
0.0008125,-0.123028
0.000813,-0.129472
0.0008135,-0.127324
0.000814,-0.127324
0.0008145,-0.129472
0.000815,-0.129472
0.0008155,-0.125176
0.000816,-0.129472
0.0008165,-0.123028
0.000817,-0.129472
0.0008175,-0.127324
0.000818,-0.129472
0.0008185,-0.129472
0.000819,-0.127324
0.0008195,-0.133768
0.00082,-0.125176
0.0008205,-0.129472
0.000821,-0.125176
0.0008215,-0.13162
0.000822,-0.123028
0.0008225,-0.129472
0.000823,-0.125176
0.0008235,-0.13162
0.000824,-0.125176
0.0008245,-0.127324
0.000825,-0.127324
0.0008255,-0.127324
0.000826,-0.129472
0.0008265,-0.125176
0.000827,-0.129472
0.0008275,-0.125176
0.000828,-0.13162
0.0008285,-0.125176
0.000829,-0.127324
0.0008295,-0.127324
0.00083,-0.127324
0.0008305,-0.127324
0.000831,-0.125176
0.0008315,-0.129472
0.000832,-0.125176
0.0008325,-0.129472
0.000833,-0.123028
0.0008335,-0.13162
0.000834,-0.123028
0.0008345,-0.127324
0.000835,-0.123028
0.0008355,-0.129472
0.000836,-0.125176
0.0008365,-0.127324
0.000837,-0.125176
0.0008375,-0.129472
0.000838,-0.13162
0.0008385,-0.125176
0.000839,-0.13162
0.0008395,-0.127324
0.00084,-0.135916
0.0008405,-0.127324
0.000841,-0.129472
0.0008415,-0.129472
0.000842,-0.129472
0.0008425,-0.127324
0.000843,-0.125176
0.0008435,-0.135916
0.000844,-0.123028
0.0008445,-0.129472
0.000845,-0.123028
0.0008455,-0.13162
0.000846,-0.12088
0.0008465,-0.13162
0.000847,-0.123028
0.0008475,-0.127324
0.000848,-0.125176
0.0008485,-0.127324
0.000849,-0.123028
0.0008495,-0.127324
0.00085,-0.129472
0.0008505,-0.118732
0.000851,-0.125176
0.0008515,-0.127324
0.000852,-0.129472
0.0008525,-0.118732
0.000853,-0.125176
0.0008535,-0.125176
0.000854,-0.125176
0.0008545,-0.123028
0.000855,-0.123028
0.0008555,-0.127324
0.000856,-0.123028
0.0008565,-0.127324
0.000857,-0.118732
0.0008575,-0.129472
0.000858,-0.123028
0.0008585,-0.125176
0.000859,-0.12088
0.0008595,-0.13162
0.00086,-0.125176
0.0008605,-0.125176
0.000861,-0.12088
0.0008615,-0.127324
0.000862,-0.125176
0.0008625,-0.12088
0.000863,-0.125176
0.0008635,-0.125176
0.000864,-0.129472
0.0008645,-0.12088
0.000865,-0.127324
0.0008655,-0.125176
0.000866,-0.13162
0.0008665,-0.125176
0.000867,-0.125176
0.0008675,-0.125176
0.000868,-0.127324
0.0008685,-0.127324
0.000869,-0.123028
0.0008695,-0.13162
0.00087,-0.127324
0.0008705,-0.133768
0.000871,-0.12088
0.0008715,-0.129472
0.000872,-0.127324
0.0008725,-0.13162
0.000873,-0.125176
0.0008735,-0.127324
0.000874,-0.13162
0.0008745,-0.125176
0.000875,-0.127324
0.0008755,-0.127324
0.000876,-0.13162
0.0008765,-0.123028
0.000877,-0.129472
0.0008775,-0.123028
0.000878,-0.129472
0.0008785,-0.125176
0.000879,-0.127324
0.0008795,-0.129472
0.00088,-0.129472
0.0008805,-0.129472
0.000881,-0.123028
0.0008815,-0.129472
0.000882,-0.123028
0.0008825,-0.127324
0.000883,-0.123028
0.0008835,-0.127324
0.000884,-0.125176
0.0008845,-0.127324
0.000885,-0.125176
0.0008855,-0.125176
0.000886,-0.13162
0.0008865,-0.123028
0.000887,-0.125176
0.0008875,-0.123028
0.000888,-0.13162
0.0008885,-0.12088
0.000889,-0.129472
0.0008895,-0.123028
0.00089,-0.13162
0.0008905,-0.123028
0.000891,-0.127324
0.0008915,-0.125176
0.000892,-0.133768
0.0008925,-0.125176
0.000893,-0.125176
0.0008935,-0.129472
0.000894,-0.127324
0.0008945,-0.129472
0.000895,-0.125176
0.0008955,-0.129472
0.000896,-0.127324
0.0008965,-0.13162
0.000897,-0.125176
0.0008975,-0.129472
0.000898,-0.127324
0.0008985,-0.129472
0.000899,-0.127324
0.0008995,-0.127324
0.0009,-0.133768
0.0009005,-0.125176
0.000901,-0.13162
0.0009015,-0.127324
0.000902,-0.129472
0.0009025,-0.12088
0.000903,-0.127324
0.0009035,-0.125176
0.000904,-0.129472
0.0009045,-0.125176
0.000905,-0.125176
0.0009055,-0.129472
0.000906,-0.125176
0.0009065,-0.127324
0.000907,-0.127324
0.0009075,-0.127324
0.000908,-0.125176
0.0009085,-0.129472
0.000909,-0.127324
0.0009095,-0.125176
0.00091,-0.129472
0.0009105,-0.127324
0.000911,-0.13162
0.0009115,-0.125176
0.000912,-0.135916
0.0009125,-0.125176
0.000913,-0.129472
0.0009135,-0.123028
0.000914,-0.133768
0.0009145,-0.123028
0.000915,-0.127324
0.0009155,-0.123028
0.000916,-0.13162
0.0009165,-0.125176
0.000917,-0.123028
0.0009175,-0.129472
0.000918,-0.129472
0.0009185,-0.129472
0.000919,-0.12088
0.0009195,-0.129472
0.00092,-0.125176
0.0009205,-0.129472
0.000921,-0.123028
0.0009215,-0.129472
0.000922,-0.13162
0.0009225,-0.125176
0.000923,-0.127324
0.0009235,-0.118732
0.000924,-0.138065
0.0009245,-0.125176
0.000925,-0.129472
0.0009255,-0.12088
0.000926,-0.133768
0.0009265,-0.123028
0.000927,-0.127324
0.0009275,-0.12088
0.000928,-0.129472
0.0009285,-0.123028
0.000929,-0.123028
0.0009295,-0.123028
0.00093,-0.127324
0.0009305,-0.127324
0.000931,-0.123028
0.0009315,-0.125176
0.000932,-0.125176
0.0009325,-0.129472
0.000933,-0.12088
0.0009335,-0.125176
0.000934,-0.129472
0.0009345,-0.127324
0.000935,-0.125176
0.0009355,-0.123028
0.000936,-0.13162
0.0009365,-0.125176
0.000937,-0.129472
0.0009375,-0.118732
0.000938,-0.13162
0.0009385,-0.123028
0.000939,-0.127324
0.0009395,-0.123028
0.00094,-0.129472
0.0009405,-0.125176
0.000941,-0.127324
0.0009415,-0.125176
0.000942,-0.127324
0.0009425,-0.127324
0.000943,-0.123028
0.0009435,-0.127324
0.000944,-0.125176
0.0009445,-0.13162
0.000945,-0.123028
0.0009455,-0.125176
0.000946,-0.129472
0.0009465,-0.127324
0.000947,-0.127324
0.0009475,-0.125176
0.000948,-0.125176
0.0009485,-0.125176
0.000949,-0.129472
0.0009495,-0.123028
0.00095,-0.133768
0.0009505,-0.125176
0.000951,-0.127324
0.0009515,-0.123028
0.000952,-0.129472
0.0009525,-0.129472
0.000953,-0.127324
0.0009535,-0.127324
0.000954,-0.127324
0.0009545,-0.13162
0.000955,-0.123028
0.0009555,-0.13162
0.000956,-0.127324
0.0009565,-0.13162
0.000957,-0.123028
0.0009575,-0.129472
0.000958,-0.123028
0.0009585,-0.129472
0.000959,-0.127324
0.0009595,-0.127324
0.00096,-0.127324
0.0009605,-0.127324
0.000961,-0.129472
0.0009615,-0.123028
0.000962,-0.13162
0.0009625,-0.123028
0.000963,-0.13162
0.0009635,-0.123028
0.000964,-0.129472
0.0009645,-0.127324
0.000965,-0.127324
0.0009655,-0.125176
0.000966,-0.123028
0.0009665,-0.129472
0.000967,-0.123028
0.0009675,-0.125176
0.000968,-0.127324
0.0009685,-0.13162
0.000969,-0.118732
0.0009695,-0.13162
0.00097,-0.125176
0.0009705,-0.129472
0.000971,-0.12088
0.0009715,-0.129472
0.000972,-0.127324
0.0009725,-0.125176
0.000973,-0.129472
0.0009735,-0.129472
0.000974,-0.13162
0.0009745,-0.125176
0.000975,-0.13162
0.0009755,-0.125176
0.000976,-0.129472
0.0009765,-0.127324
0.000977,-0.127324
0.0009775,-0.129472
0.000978,-0.127324
0.0009785,-0.129472
0.000979,-0.123028
0.0009795,-0.127324
0.00098,-0.123028
0.0009805,-0.133768
0.000981,-0.12088
0.0009815,-0.129472
0.000982,-0.123028
0.0009825,-0.13162
0.000983,-0.123028
0.0009835,-0.125176
0.000984,-0.125176
0.0009845,-0.127324
0.000985,-0.125176
0.0009855,-0.123028
0.000986,-0.127324
0.0009865,-0.129472
0.000987,-0.129472
0.0009875,-0.123028
0.000988,-0.129472
0.0009885,-0.127324
0.000989,-0.129472
0.0009895,-0.125176
0.00099,-0.125176
0.0009905,-0.125176
0.000991,-0.127324
0.0009915,-0.127324
0.000992,-0.12088
0.0009925,-0.133768
0.000993,-0.12088
0.0009935,-0.133768
0.000994,-0.118732
0.0009945,-0.133768
0.000995,-0.123028
0.0009955,-0.129472
0.000996,-0.125176
0.0009965,-0.129472
0.000997,-0.127324
0.0009975,-0.127324
0.000998,-0.127324
0.0009985,-0.129472
0.000999,-0.129472
0.0009995,-0.12088
0.001,-0.127324
0.0010005,-0.12088
0.001001,-0.129472
0.0010015,-0.125176
0.001002,-0.125176
0.0010025,-0.129472
0.001003,-0.127324
0.0010035,-0.127324
0.001004,-0.125176
0.0010045,-0.135916
0.001005,-0.125176
0.0010055,-0.129472
0.001006,-0.123028
0.0010065,-0.133768
0.001007,-0.123028
0.0010075,-0.127324
0.001008,-0.123028
0.0010085,-0.129472
0.001009,-0.127324
0.0010095,-0.123028
0.00101,-0.125176
0.0010105,-0.125176
0.001011,-0.13162
0.0010115,-0.123028
0.001012,-0.129472
0.0010125,-0.125176
0.001013,-0.13162
0.0010135,-0.125176
0.001014,-0.127324
0.0010145,-0.127324
0.001015,-0.127324
0.0010155,-0.13162
0.001016,-0.123028
0.0010165,-0.129472
0.001017,-0.127324
0.0010175,-0.129472
0.001018,-0.123028
0.0010185,-0.133768
0.001019,-0.127324
0.0010195,-0.13162
0.00102,-0.123028
0.0010205,-0.129472
0.001021,-0.127324
0.0010215,-0.125176
0.001022,-0.127324
0.0010225,-0.125176
0.001023,-0.13162
0.0010235,-0.12088
0.001024,-0.125176
0.0010245,-0.125176
0.001025,-0.129472
0.0010255,-0.12088
0.001026,-0.125176
0.0010265,-0.125176
0.001027,-0.125176
0.0010275,-0.125176
0.001028,-0.12088
0.0010285,-0.127324
0.001029,-0.123028
0.0010295,-0.125176
0.00103,-0.118732
0.0010305,-0.127324
0.001031,-0.12088
0.0010315,-0.127324
0.001032,-0.118732
0.0010325,-0.125176
0.001033,-0.127324
0.0010335,-0.125176
0.001034,-0.127324
0.0010345,-0.127324
0.001035,-0.13162
0.0010355,-0.123028
0.001036,-0.129472
0.0010365,-0.127324
0.001037,-0.13162
0.0010375,-0.12088
0.001038,-0.127324
0.0010385,-0.125176
0.001039,-0.127324
0.0010395,-0.125176
0.00104,-0.123028
0.0010405,-0.133768
0.001041,-0.127324
0.0010415,-0.13162
0.001042,-0.125176
0.0010425,-0.13162
0.001043,-0.125176
0.0010435,-0.129472
0.001044,-0.125176
0.0010445,-0.127324
0.001045,-0.129472
0.0010455,-0.125176
0.001046,-0.125176
0.0010465,-0.125176
0.001047,-0.129472
0.0010475,-0.12088
0.001048,-0.129472
0.0010485,-0.127324
0.001049,-0.13162
0.0010495,-0.118732
0.00105,-0.127324
0.0010505,-0.123028
0.001051,-0.129472
0.0010515,-0.123028
0.001052,-0.123028
0.0010525,-0.129472
0.001053,-0.125176
0.0010535,-0.127324
0.001054,-0.123028
0.0010545,-0.129472
0.001055,-0.129472
0.0010555,-0.129472
0.001056,-0.125176
0.0010565,-0.133768
0.001057,-0.127324
0.0010575,-0.125176
0.001058,-0.129472
0.0010585,-0.129472
0.001059,-0.133768
0.0010595,-0.127324
0.00106,-0.129472
0.0010605,-0.123028
0.001061,-0.129472
0.0010615,-0.12088
0.001062,-0.129472
0.0010625,-0.125176
0.001063,-0.13162
0.0010635,-0.123028
0.001064,-0.129472
0.0010645,-0.129472
0.001065,-0.129472
0.0010655,-0.127324
0.001066,-0.125176
0.0010665,-0.129472
0.001067,-0.129472
0.0010675,-0.13162
0.001068,-0.129472
0.0010685,-0.13162
0.001069,-0.129472
0.0010695,-0.127324
0.00107,-0.127324
0.0010705,-0.123028
0.001071,-0.129472
0.0010715,-0.125176
0.001072,-0.129472
0.0010725,-0.123028
0.001073,-0.13162
0.0010735,-0.12088
0.001074,-0.127324
0.0010745,-0.125176
0.001075,-0.129472
0.0010755,-0.125176
0.001076,-0.129472
0.0010765,-0.127324
0.001077,-0.123028
0.0010775,-0.123028
0.001078,-0.127324
0.0010785,-0.129472
0.001079,-0.127324
0.0010795,-0.129472
0.00108,-0.125176
0.0010805,-0.127324
0.001081,-0.125176
0.0010815,-0.129472
0.001082,-0.127324
0.0010825,-0.125176
0.001083,-0.13162
0.0010835,-0.127324
0.001084,-0.13162
0.0010845,-0.123028
0.001085,-0.133768
0.0010855,-0.123028
0.001086,-0.129472
0.0010865,-0.12088
0.001087,-0.133768
0.0010875,-0.123028
0.001088,-0.129472
0.0010885,-0.123028
0.001089,-0.127324
0.0010895,-0.123028
0.00109,-0.123028
0.0010905,-0.127324
0.001091,-0.12088
0.0010915,-0.129472
0.001092,-0.12088
0.0010925,-0.127324
0.001093,-0.125176
0.0010935,-0.127324
0.001094,-0.123028
0.0010945,-0.123028
0.001095,-0.129472
0.0010955,-0.123028
0.001096,-0.129472
0.0010965,-0.118732
0.001097,-0.133768
0.0010975,-0.12088
0.001098,-0.127324
0.0010985,-0.12088
0.001099,-0.129472
0.0010995,-0.12088
0.0011,-0.127324
0.0011005,-0.12088
0.001101,-0.127324
0.0011015,-0.127324
0.001102,-0.125176
0.0011025,-0.127324
0.001103,-0.123028
0.0011035,-0.13162
0.001104,-0.12088
0.0011045,-0.127324
0.001105,-0.125176
0.0011055,-0.129472
0.001106,-0.125176
0.0011065,-0.125176
0.001107,-0.129472
0.0011075,-0.125176
0.001108,-0.13162
0.0011085,-0.123028
0.001109,-0.13162
0.0011095,-0.125176
0.00111,-0.129472
0.0011105,-0.12088
0.001111,-0.133768
0.0011115,-0.125176
0.001112,-0.127324
0.0011125,-0.125176
0.001113,-0.127324
0.0011135,-0.127324
0.001114,-0.123028
0.0011145,-0.127324
0.001115,-0.127324
0.0011155,-0.135916
0.001116,-0.12088
0.0011165,-0.129472
0.001117,-0.125176
0.0011175,-0.129472
0.001118,-0.123028
0.0011185,-0.123028
0.001119,-0.127324
0.0011195,-0.125176
0.00112,-0.127324
0.0011205,-0.123028
0.001121,-0.13162
0.0011215,-0.129472
0.001122,-0.13162
0.0011225,-0.12088
0.001123,-0.13162
0.0011235,-0.125176
0.001124,-0.127324
0.0011245,-0.125176
0.001125,-0.125176
0.0011255,-0.129472
0.001126,-0.125176
0.0011265,-0.123028
0.001127,-0.127324
0.0011275,-0.133768
0.001128,-0.123028
0.0011285,-0.123028
0.001129,-0.123028
0.0011295,-0.129472
0.00113,-0.12088
0.0011305,-0.127324
0.001131,-0.125176
0.0011315,-0.129472
0.001132,-0.127324
0.0011325,-0.123028
0.001133,-0.13162
0.0011335,-0.125176
0.001134,-0.13162
0.0011345,-0.125176
0.001135,-0.129472
0.0011355,-0.127324
0.001136,-0.129472
0.0011365,-0.127324
0.001137,-0.129472
0.0011375,-0.129472
0.001138,-0.125176
0.0011385,-0.129472
0.001139,-0.125176
0.0011395,-0.129472
0.00114,-0.123028
0.0011405,-0.13162
0.001141,-0.123028
0.0011415,-0.13162
0.001142,-0.12088
0.0011425,-0.129472
0.001143,-0.127324
0.0011435,-0.13162
0.001144,-0.129472
0.0011445,-0.127324
0.001145,-0.13162
0.0011455,-0.127324
0.001146,-0.127324
0.0011465,-0.125176
0.001147,-0.13162
0.0011475,-0.127324
0.001148,-0.129472
0.0011485,-0.123028
0.001149,-0.125176
0.0011495,-0.125176
0.00115,-0.125176
0.0011505,-0.125176
0.001151,-0.125176
0.0011515,-0.133768
0.001152,-0.118732
0.0011525,-0.127324
0.001153,-0.118732
0.0011535,-0.133768
0.001154,-0.114435
0.0011545,-0.127324
0.001155,-0.123028
0.0011555,-0.129472
0.001156,-0.125176
0.0011565,-0.123028
0.001157,-0.125176
0.0011575,-0.125176
0.001158,-0.127324
0.0011585,-0.12088
0.001159,-0.123028
0.0011595,-0.125176
0.00116,-0.127324
0.0011605,-0.125176
0.001161,-0.125176
0.0011615,-0.125176
0.001162,-0.125176
0.0011625,-0.13162
0.001163,-0.125176
0.0011635,-0.13162
0.001164,-0.125176
0.0011645,-0.127324
0.001165,-0.12088
0.0011655,-0.133768
0.001166,-0.123028
0.0011665,-0.129472
0.001167,-0.123028
0.0011675,-0.129472
0.001168,-0.123028
0.0011685,-0.125176
0.001169,-0.123028
0.0011695,-0.127324
0.00117,-0.129472
0.0011705,-0.123028
0.001171,-0.125176
0.0011715,-0.123028
0.001172,-0.129472
0.0011725,-0.125176
0.001173,-0.13162
0.0011735,-0.125176
0.001174,-0.127324
0.0011745,-0.125176
0.001175,-0.123028
0.0011755,-0.13162
0.001176,-0.125176
0.0011765,-0.127324
0.001177,-0.123028
0.0011775,-0.13162
0.001178,-0.123028
0.0011785,-0.129472
0.001179,-0.123028
0.0011795,-0.133768
0.00118,-0.125176
0.0011805,-0.125176
0.001181,-0.123028
0.0011815,-0.125176
0.001182,-0.127324
0.0011825,-0.125176
0.001183,-0.127324
0.0011835,-0.127324
0.001184,-0.13162
0.0011845,-0.123028
0.001185,-0.127324
0.0011855,-0.129472
0.001186,-0.127324
0.0011865,-0.127324
0.001187,-0.125176
0.0011875,-0.133768
0.001188,-0.125176
0.0011885,-0.133768
0.001189,-0.12088
0.0011895,-0.133768
0.00119,-0.125176
0.0011905,-0.129472
0.001191,-0.118732
0.0011915,-0.129472
0.001192,-0.123028
0.0011925,-0.127324
0.001193,-0.123028
0.0011935,-0.125176
0.001194,-0.129472
0.0011945,-0.12088
0.001195,-0.129472
0.0011955,-0.127324
0.001196,-0.13162
0.0011965,-0.123028
0.001197,-0.129472
0.0011975,-0.129472
0.001198,-0.127324
0.0011985,-0.127324
0.001199,-0.127324
0.0011995,-0.129472
0.0012,-0.125176
0.0012005,-0.129472
0.001201,-0.123028
0.0012015,-0.129472
0.001202,-0.125176
0.0012025,-0.129472
0.001203,-0.12088
0.0012035,-0.13162
0.001204,-0.125176
0.0012045,-0.125176
0.001205,-0.125176
0.0012055,-0.127324
0.001206,-0.133768
0.0012065,-0.12088
0.001207,-0.127324
0.0012075,-0.125176
0.001208,-0.129472
0.0012085,-0.118732
0.001209,-0.129472
0.0012095,-0.125176
0.00121,-0.129472
0.0012105,-0.12088
0.001211,-0.123028
0.0012115,-0.125176
0.001212,-0.123028
0.0012125,-0.129472
0.001213,-0.123028
0.0012135,-0.13162
0.001214,-0.127324
0.0012145,-0.129472
0.001215,-0.123028
0.0012155,-0.13162
0.001216,-0.129472
0.0012165,-0.127324
0.001217,-0.123028
0.0012175,-0.127324
0.001218,-0.13162
0.0012185,-0.123028
0.001219,-0.127324
0.0012195,-0.123028
0.00122,-0.13162
0.0012205,-0.12088
0.001221,-0.129472
0.0012215,-0.123028
0.001222,-0.133768
0.0012225,-0.123028
0.001223,-0.125176
0.0012235,-0.127324
0.001224,-0.13162
0.0012245,-0.129472
0.001225,-0.125176
0.0012255,-0.129472
0.001226,-0.127324
0.0012265,-0.13162
0.001227,-0.125176
0.0012275,-0.13162
0.001228,-0.125176
0.0012285,-0.133768
0.001229,-0.129472
0.0012295,-0.129472
0.00123,-0.129472
0.0012305,-0.129472
0.001231,-0.13162
0.0012315,-0.123028
0.001232,-0.13162
0.0012325,-0.125176
0.001233,-0.129472
0.0012335,-0.12088
0.001234,-0.133768
0.0012345,-0.12088
0.001235,-0.123028
0.0012355,-0.127324
0.001236,-0.127324
0.0012365,-0.127324
0.001237,-0.127324
0.0012375,-0.127324
0.001238,-0.125176
0.0012385,-0.13162
0.001239,-0.127324
0.0012395,-0.129472
0.00124,-0.127324
0.0012405,-0.13162
0.001241,-0.127324
0.0012415,-0.129472
0.001242,-0.127324
0.0012425,-0.129472
0.001243,-0.133768
0.0012435,-0.125176
0.001244,-0.133768
0.0012445,-0.127324
0.001245,-0.133768
0.0012455,-0.125176
0.001246,-0.135916
0.0012465,-0.127324
0.001247,-0.13162
0.0012475,-0.127324
0.001248,-0.133768
0.0012485,-0.127324
0.001249,-0.129472
0.0012495,-0.129472
0.00125,-0.13162
0.0012505,-0.13162
0.001251,-0.129472
0.0012515,-0.129472
0.001252,-0.129472
0.0012525,-0.129472
0.001253,-0.125176
0.0012535,-0.127324
0.001254,-0.127324
0.0012545,-0.129472
0.001255,-0.13162
0.0012555,-0.123028
0.001256,-0.133768
0.0012565,-0.125176
0.001257,-0.127324
0.0012575,-0.125176
0.001258,-0.135916
0.0012585,-0.12088
0.001259,-0.123028
0.0012595,-0.127324
0.00126,-0.129472
0.0012605,-0.125176
0.001261,-0.127324
0.0012615,-0.129472
0.001262,-0.129472
0.0012625,-0.13162
0.001263,-0.129472
0.0012635,-0.13162
0.001264,-0.127324
0.0012645,-0.129472
0.001265,-0.123028
0.0012655,-0.129472
0.001266,-0.129472
0.0012665,-0.127324
0.001267,-0.129472
0.0012675,-0.123028
0.001268,-0.133768
0.0012685,-0.127324
0.001269,-0.13162
0.0012695,-0.123028
0.00127,-0.133768
0.0012705,-0.125176
0.001271,-0.129472
0.0012715,-0.123028
0.001272,-0.133768
0.0012725,-0.127324
0.001273,-0.123028
0.0012735,-0.125176
0.001274,-0.129472
0.0012745,-0.127324
0.001275,-0.123028
0.0012755,-0.127324
0.001276,-0.125176
0.0012765,-0.127324
0.001277,-0.123028
0.0012775,-0.127324
0.001278,-0.129472
0.0012785,-0.125176
0.001279,-0.123028
0.0012795,-0.125176
0.00128,-0.135916
0.0012805,-0.125176
0.001281,-0.127324
0.0012815,-0.12088
0.001282,-0.135916
0.0012825,-0.125176
0.001283,-0.127324
0.0012835,-0.12088
0.001284,-0.13162
0.0012845,-0.125176
0.001285,-0.125176
0.0012855,-0.127324
0.001286,-0.127324
0.0012865,-0.129472
0.001287,-0.123028
0.0012875,-0.127324
0.001288,-0.127324
0.0012885,-0.133768
0.001289,-0.118732
0.0012895,-0.127324
0.00129,-0.123028
0.0012905,-0.125176
0.001291,-0.123028
0.0012915,-0.12088
0.001292,-0.127324
0.0012925,-0.123028
0.001293,-0.129472
0.0012935,-0.12088
0.001294,-0.13162
0.0012945,-0.125176
0.001295,-0.129472
0.0012955,-0.123028
0.001296,-0.129472
0.0012965,-0.129472
0.001297,-0.125176
0.0012975,-0.123028
0.001298,-0.125176
0.0012985,-0.13162
0.001299,-0.123028
0.0012995,-0.125176
0.0013,-0.125176
0.0013005,-0.133768
0.001301,-0.12088
0.0013015,-0.127324
0.001302,-0.125176
0.0013025,-0.129472
0.001303,-0.123028
0.0013035,-0.125176
0.001304,-0.125176
0.0013045,-0.127324
0.001305,-0.129472
0.0013055,-0.12088
0.001306,-0.129472
0.0013065,-0.125176
0.001307,-0.129472
0.0013075,-0.12088
0.001308,-0.13162
0.0013085,-0.129472
0.001309,-0.127324
0.0013095,-0.125176
0.00131,-0.125176
0.0013105,-0.13162
0.001311,-0.123028
0.0013115,-0.127324
0.001312,-0.123028
0.0013125,-0.13162
0.001313,-0.12088
0.0013135,-0.127324
0.001314,-0.123028
0.0013145,-0.13162
0.001315,-0.125176
0.0013155,-0.125176
0.001316,-0.127324
0.0013165,-0.13162
0.001317,-0.13162
0.0013175,-0.125176
0.001318,-0.129472
0.0013185,-0.129472
0.001319,-0.129472
0.0013195,-0.127324
0.00132,-0.13162
0.0013205,-0.129472
0.001321,-0.127324
0.0013215,-0.127324
0.001322,-0.129472
0.0013225,-0.127324
0.001323,-0.125176
0.0013235,-0.127324
0.001324,-0.123028
0.0013245,-0.13162
0.001325,-0.12088
0.0013255,-0.133768
0.001326,-0.123028
0.0013265,-0.129472
0.001327,-0.123028
0.0013275,-0.127324
0.001328,-0.127324
0.0013285,-0.127324
0.001329,-0.127324
0.0013295,-0.125176
0.00133,-0.129472
0.0013305,-0.125176
0.001331,-0.129472
0.0013315,-0.125176
0.001332,-0.129472
0.0013325,-0.125176
0.001333,-0.127324
0.0013335,-0.127324
0.001334,-0.125176
0.0013345,-0.129472
0.001335,-0.125176
0.0013355,-0.129472
0.001336,-0.12088
0.0013365,-0.13162
0.001337,-0.118732
0.0013375,-0.129472
0.001338,-0.123028
0.0013385,-0.129472
0.001339,-0.12088
0.0013395,-0.129472
0.00134,-0.127324
0.0013405,-0.127324
0.001341,-0.125176
0.0013415,-0.127324
0.001342,-0.129472
0.0013425,-0.127324
0.001343,-0.13162
0.0013435,-0.127324
0.001344,-0.129472
0.0013445,-0.127324
0.001345,-0.129472
0.0013455,-0.125176
0.001346,-0.127324
0.0013465,-0.13162
0.001347,-0.125176
0.0013475,-0.127324
0.001348,-0.123028
0.0013485,-0.13162
0.001349,-0.123028
0.0013495,-0.127324
0.00135,-0.12088
0.0013505,-0.13162
0.001351,-0.12088
0.0013515,-0.127324
0.001352,-0.123028
0.0013525,-0.127324
0.001353,-0.123028
0.0013535,-0.123028
0.001354,-0.127324
0.0013545,-0.125176
0.001355,-0.127324
0.0013555,-0.125176
0.001356,-0.13162
0.0013565,-0.125176
0.001357,-0.13162
0.0013575,-0.127324
0.001358,-0.127324
0.0013585,-0.129472
0.001359,-0.129472
0.0013595,-0.127324
0.00136,-0.123028
0.0013605,-0.13162
0.001361,-0.123028
0.0013615,-0.127324
0.001362,-0.123028
0.0013625,-0.13162
0.001363,-0.12088
0.0013635,-0.127324
0.001364,-0.123028
0.0013645,-0.129472
0.001365,-0.127324
0.0013655,-0.123028
0.001366,-0.125176
0.0013665,-0.125176
0.001367,-0.129472
0.0013675,-0.12088
0.001368,-0.125176
0.0013685,-0.125176
0.001369,-0.125176
0.0013695,-0.12088
0.00137,-0.125176
0.0013705,-0.129472
0.001371,-0.125176
0.0013715,-0.127324
0.001372,-0.12088
0.0013725,-0.13162
0.001373,-0.123028
0.0013735,-0.125176
0.001374,-0.118732
0.0013745,-0.13162
0.001375,-0.123028
0.0013755,-0.127324
0.001376,-0.12088
0.0013765,-0.129472
0.001377,-0.125176
0.0013775,-0.125176
0.001378,-0.129472
0.0013785,-0.125176
0.001379,-0.13162
0.0013795,-0.125176
0.00138,-0.129472
0.0013805,-0.129472
0.001381,-0.13162
0.0013815,-0.125176
0.001382,-0.129472
0.0013825,-0.129472
0.001383,-0.127324
0.0013835,-0.127324
0.001384,-0.123028
0.0013845,-0.133768
0.001385,-0.129472
0.0013855,-0.129472
0.001386,-0.12088
0.0013865,-0.133768
0.001387,-0.125176
0.0013875,-0.129472
0.001388,-0.12088
0.0013885,-0.127324
0.001389,-0.127324
0.0013895,-0.125176
0.00139,-0.125176
0.0013905,-0.125176
0.001391,-0.13162
0.0013915,-0.123028
0.001392,-0.127324
0.0013925,-0.125176
0.001393,-0.133768
0.0013935,-0.125176
0.001394,-0.129472
0.0013945,-0.125176
0.001395,-0.129472
0.0013955,-0.125176
0.001396,-0.125176
0.0013965,-0.129472
0.001397,-0.127324
0.0013975,-0.13162
0.001398,-0.123028
0.0013985,-0.13162
0.001399,-0.127324
0.0013995,-0.129472
0.0014,-0.123028
0.0014005,-0.129472
0.001401,-0.129472
0.0014015,-0.125176
0.001402,-0.125176
0.0014025,-0.12088
0.001403,-0.13162
0.0014035,-0.118732
0.001404,-0.127324
0.0014045,-0.123028
0.001405,-0.127324
0.0014055,-0.12088
0.001406,-0.129472
0.0014065,-0.118732
0.001407,-0.129472
0.0014075,-0.125176
0.001408,-0.125176
0.0014085,-0.123028
0.001409,-0.125176
0.0014095,-0.125176
0.00141,-0.118732
0.0014105,-0.127324
0.001411,-0.127324
0.0014115,-0.129472
0.001412,-0.12088
0.0014125,-0.127324
0.001413,-0.127324
0.0014135,-0.125176
0.001414,-0.125176
0.0014145,-0.125176
0.001415,-0.13162
0.0014155,-0.12088
0.001416,-0.127324
0.0014165,-0.12088
0.001417,-0.13162
0.0014175,-0.12088
0.001418,-0.127324
0.0014185,-0.12088
0.001419,-0.13162
0.0014195,-0.123028
0.00142,-0.127324
0.0014205,-0.123028
0.001421,-0.127324
0.0014215,-0.129472
0.001422,-0.12088
0.0014225,-0.127324
0.001423,-0.129472
0.0014235,-0.13162
0.001424,-0.123028
0.0014245,-0.127324
0.001425,-0.129472
0.0014255,-0.127324
0.001426,-0.125176
0.0014265,-0.123028
0.001427,-0.127324
0.0014275,-0.123028
0.001428,-0.127324
0.0014285,-0.12088
0.001429,-0.129472
0.0014295,-0.118732
0.00143,-0.127324
0.0014305,-0.118732
0.001431,-0.13162
0.0014315,-0.125176
0.001432,-0.125176
0.0014325,-0.123028
0.001433,-0.129472
0.0014335,-0.129472
0.001434,-0.12088
0.0014345,-0.127324
0.001435,-0.127324
0.0014355,-0.129472
0.001436,-0.12088
0.0014365,-0.127324
0.001437,-0.127324
0.0014375,-0.127324
0.001438,-0.12088
0.0014385,-0.125176
0.001439,-0.129472
0.0014395,-0.123028
0.00144,-0.125176
0.0014405,-0.12088
0.001441,-0.13162
0.0014415,-0.123028
0.001442,-0.127324
0.0014425,-0.123028
0.001443,-0.13162
0.0014435,-0.125176
0.001444,-0.129472
0.0014445,-0.127324
0.001445,-0.13162
0.0014455,-0.127324
0.001446,-0.127324
0.0014465,-0.129472
0.001447,-0.127324
0.0014475,-0.129472
0.001448,-0.123028
0.0014485,-0.127324
0.001449,-0.125176
0.0014495,-0.129472
0.00145,-0.123028
0.0014505,-0.125176
0.001451,-0.127324
0.0014515,-0.125176
0.001452,-0.125176
0.0014525,-0.123028
0.001453,-0.13162
0.0014535,-0.12088
0.001454,-0.129472
0.0014545,-0.12088
0.001455,-0.13162
0.0014555,-0.125176
0.001456,-0.127324
0.0014565,-0.125176
0.001457,-0.13162
0.0014575,-0.129472
0.001458,-0.125176
0.0014585,-0.13162
0.001459,-0.127324
0.0014595,-0.13162
0.00146,-0.125176
0.0014605,-0.13162
0.001461,-0.125176
0.0014615,-0.13162
0.001462,-0.127324
0.0014625,-0.129472
0.001463,-0.129472
0.0014635,-0.123028
0.001464,-0.127324
0.0014645,-0.125176
0.001465,-0.13162
0.0014655,-0.125176
0.001466,-0.129472
0.0014665,-0.127324
0.001467,-0.133768
0.0014675,-0.123028
0.001468,-0.127324
0.0014685,-0.125176
0.001469,-0.13162
0.0014695,-0.125176
0.00147,-0.125176
0.0014705,-0.129472
0.001471,-0.125176
0.0014715,-0.129472
0.001472,-0.13162
0.0014725,-0.13162
0.001473,-0.125176
0.0014735,-0.13162
0.001474,-0.125176
0.0014745,-0.129472
0.001475,-0.129472
0.0014755,-0.129472
0.001476,-0.125176
0.0014765,-0.125176
0.001477,-0.133768
0.0014775,-0.127324
0.001478,-0.13162
0.0014785,-0.127324
0.001479,-0.133768
0.0014795,-0.125176
0.00148,-0.129472
0.0014805,-0.127324
0.001481,-0.129472
0.0014815,-0.127324
0.001482,-0.127324
0.0014825,-0.129472
0.001483,-0.127324
0.0014835,-0.129472
0.001484,-0.125176
0.0014845,-0.129472
0.001485,-0.127324
0.0014855,-0.13162
0.001486,-0.123028
0.0014865,-0.125176
0.001487,-0.123028
0.0014875,-0.127324
0.001488,-0.125176
0.0014885,-0.12088
0.001489,-0.127324
0.0014895,-0.125176
0.00149,-0.129472
0.0014905,-0.12088
0.001491,-0.129472
0.0014915,-0.125176
0.001492,-0.127324
0.0014925,-0.12088
0.001493,-0.125176
0.0014935,-0.127324
0.001494,-0.123028
0.0014945,-0.123028
0.001495,-0.12088
0.0014955,-0.13162
0.001496,-0.123028
0.0014965,-0.129472
0.001497,-0.116583
0.0014975,-0.133768
0.001498,-0.125176
0.0014985,-0.127324
0.001499,-0.12088
0.0014995,-0.133768
0.0015,-0.127324
0.0015005,-0.125176
0.001501,-0.125176
0.0015015,-0.127324
0.001502,-0.129472
0.0015025,-0.12088
0.001503,-0.127324
0.0015035,-0.125176
0.001504,-0.129472
0.0015045,-0.12088
0.001505,-0.129472
0.0015055,-0.127324
0.001506,-0.125176
0.0015065,-0.125176
0.001507,-0.123028
0.0015075,-0.133768
0.001508,-0.123028
0.0015085,-0.13162
0.001509,-0.118732
0.0015095,-0.13162
0.00151,-0.125176
0.0015105,-0.125176
0.001511,-0.12088
0.0015115,-0.13162
0.001512,-0.125176
0.0015125,-0.12088
0.001513,-0.123028
0.0015135,-0.125176
0.001514,-0.13162
0.0015145,-0.123028
0.001515,-0.129472
0.0015155,-0.125176
0.001516,-0.13162
0.0015165,-0.123028
0.001517,-0.125176
0.0015175,-0.129472
0.001518,-0.127324
0.0015185,-0.127324
0.001519,-0.123028
0.0015195,-0.13162
0.00152,-0.125176
0.0015205,-0.13162
0.001521,-0.12088
0.0015215,-0.13162
0.001522,-0.125176
0.0015225,-0.13162
0.001523,-0.123028
0.0015235,-0.133768
0.001524,-0.127324
0.0015245,-0.127324
0.001525,-0.125176
0.0015255,-0.125176
0.001526,-0.13162
0.0015265,-0.123028
0.001527,-0.125176
0.0015275,-0.129472
0.001528,-0.13162
0.0015285,-0.123028
0.001529,-0.125176
0.0015295,-0.125176
0.00153,-0.129472
0.0015305,-0.123028
0.001531,-0.125176
0.0015315,-0.129472
0.001532,-0.12088
0.0015325,-0.127324
0.001533,-0.118732
0.0015335,-0.13162
0.001534,-0.123028
0.0015345,-0.127324
0.001535,-0.118732
0.0015355,-0.129472
0.001536,-0.125176
0.0015365,-0.125176
0.001537,-0.125176
0.0015375,-0.129472
0.001538,-0.129472
0.0015385,-0.125176
0.001539,-0.127324
0.0015395,-0.125176
0.00154,-0.129472
0.0015405,-0.12088
0.001541,-0.125176
0.0015415,-0.123028
0.001542,-0.125176
0.0015425,-0.118732
0.001543,-0.123028
0.0015435,-0.127324
0.001544,-0.125176
0.0015445,-0.125176
0.001545,-0.123028
0.0015455,-0.13162
0.001546,-0.123028
0.0015465,-0.129472
0.001547,-0.12088
0.0015475,-0.13162
0.001548,-0.125176
0.0015485,-0.129472
0.001549,-0.127324
0.0015495,-0.129472
0.00155,-0.127324
0.0015505,-0.127324
0.001551,-0.133768
0.0015515,-0.123028
0.001552,-0.129472
0.0015525,-0.127324
0.001553,-0.13162
0.0015535,-0.127324
0.001554,-0.133768
0.0015545,-0.127324
0.001555,-0.127324
0.0015555,-0.129472
0.001556,-0.127324
0.0015565,-0.13162
0.001557,-0.129472
0.0015575,-0.13162
0.001558,-0.127324
0.0015585,-0.129472
0.001559,-0.123028
0.0015595,-0.13162
0.00156,-0.127324
0.0015605,-0.125176
0.001561,-0.127324
0.0015615,-0.129472
0.001562,-0.123028
0.0015625,-0.127324
0.001563,-0.127324
0.0015635,-0.123028
0.001564,-0.129472
0.0015645,-0.125176
0.001565,-0.127324
0.0015655,-0.125176
0.001566,-0.13162
0.0015665,-0.12088
0.001567,-0.127324
0.0015675,-0.127324
0.001568,-0.127324
0.0015685,-0.127324
0.001569,-0.125176
0.0015695,-0.13162
0.00157,-0.127324
0.0015705,-0.127324
0.001571,-0.12088
0.0015715,-0.129472
0.001572,-0.125176
0.0015725,-0.129472
0.001573,-0.125176
0.0015735,-0.127324
0.001574,-0.129472
0.0015745,-0.127324
0.001575,-0.129472
0.0015755,-0.125176
0.001576,-0.133768
0.0015765,-0.127324
0.001577,-0.13162
0.0015775,-0.123028
0.001578,-0.13162
0.0015785,-0.125176
0.001579,-0.127324
0.0015795,-0.127324
0.00158,-0.129472
0.0015805,-0.129472
0.001581,-0.125176
0.0015815,-0.127324
0.001582,-0.125176
0.0015825,-0.133768
0.001583,-0.123028
0.0015835,-0.129472
0.001584,-0.127324
0.0015845,-0.129472
0.001585,-0.123028
0.0015855,-0.123028
0.001586,-0.13162
0.0015865,-0.123028
0.001587,-0.127324
0.0015875,-0.123028
0.001588,-0.13162
0.0015885,-0.125176
0.001589,-0.13162
0.0015895,-0.123028
0.00159,-0.13162
0.0015905,-0.125176
0.001591,-0.127324
0.0015915,-0.12088
0.001592,-0.129472
0.0015925,-0.127324
0.001593,-0.123028
0.0015935,-0.123028
0.001594,-0.127324
0.0015945,-0.129472
0.001595,-0.118732
0.0015955,-0.127324
0.001596,-0.125176
0.0015965,-0.129472
0.001597,-0.123028
0.0015975,-0.125176
0.001598,-0.13162
0.0015985,-0.125176
0.001599,-0.125176
0.0015995,-0.118732
0.0016,-0.129472
0.0016005,-0.123028
0.001601,-0.129472
0.0016015,-0.118732
0.001602,-0.13162
0.0016025,-0.123028
0.001603,-0.127324
0.0016035,-0.125176
0.001604,-0.129472
0.0016045,-0.127324
0.001605,-0.123028
0.0016055,-0.125176
0.001606,-0.127324
0.0016065,-0.129472
0.001607,-0.123028
0.0016075,-0.125176
0.001608,-0.129472
0.0016085,-0.133768
0.001609,-0.12088
0.0016095,-0.125176
0.00161,-0.127324
0.0016105,-0.127324
0.001611,-0.123028
0.0016115,-0.125176
0.001612,-0.127324
0.0016125,-0.125176
0.001613,-0.129472
0.0016135,-0.12088
0.001614,-0.133768
0.0016145,-0.12088
0.001615,-0.13162
0.0016155,-0.123028
0.001616,-0.127324
0.0016165,-0.127324
0.001617,-0.125176
0.0016175,-0.125176
0.001618,-0.127324
0.0016185,-0.129472
0.001619,-0.123028
0.0016195,-0.129472
0.00162,-0.123028
0.0016205,-0.129472
0.001621,-0.123028
0.0016215,-0.129472
0.001622,-0.127324
0.0016225,-0.129472
0.001623,-0.127324
0.0016235,-0.125176
0.001624,-0.133768
0.0016245,-0.125176
0.001625,-0.13162
0.0016255,-0.125176
0.001626,-0.13162
0.0016265,-0.125176
0.001627,-0.13162
0.0016275,-0.12088
0.001628,-0.13162
0.0016285,-0.127324
0.001629,-0.125176
0.0016295,-0.127324
0.00163,-0.127324
0.0016305,-0.13162
0.001631,-0.123028
0.0016315,-0.127324
0.001632,-0.125176
0.0016325,-0.13162
0.001633,-0.118732
0.0016335,-0.127324
0.001634,-0.127324
0.0016345,-0.129472
0.001635,-0.123028
0.0016355,-0.125176
0.001636,-0.13162
0.0016365,-0.129472
0.001637,-0.129472
0.0016375,-0.123028
0.001638,-0.13162
0.0016385,-0.125176
0.001639,-0.127324
0.0016395,-0.125176
0.00164,-0.129472
0.0016405,-0.129472
0.001641,-0.127324
0.0016415,-0.125176
0.001642,-0.125176
0.0016425,-0.129472
0.001643,-0.127324
0.0016435,-0.127324
0.001644,-0.123028
0.0016445,-0.13162
0.001645,-0.123028
0.0016455,-0.13162
0.001646,-0.127324
0.0016465,-0.13162
0.001647,-0.12088
0.0016475,-0.125176
0.001648,-0.127324
0.0016485,-0.127324
0.001649,-0.127324
0.0016495,-0.127324
0.00165,-0.13162
0.0016505,-0.125176
0.001651,-0.129472
0.0016515,-0.123028
0.001652,-0.129472
0.0016525,-0.125176
0.001653,-0.127324
0.0016535,-0.127324
0.001654,-0.127324
0.0016545,-0.129472
0.001655,-0.125176
0.0016555,-0.129472
0.001656,-0.12088
0.0016565,-0.13162
0.001657,-0.125176
0.0016575,-0.129472
0.001658,-0.123028
0.0016585,-0.133768
0.001659,-0.125176
0.0016595,-0.127324
0.00166,-0.127324
0.0016605,-0.13162
0.001661,-0.127324
0.0016615,-0.125176
0.001662,-0.129472
0.0016625,-0.127324
0.001663,-0.13162
0.0016635,-0.125176
0.001664,-0.13162
0.0016645,-0.127324
0.001665,-0.129472
0.0016655,-0.125176
0.001666,-0.127324
0.0016665,-0.129472
0.001667,-0.127324
0.0016675,-0.13162
0.001668,-0.125176
0.0016685,-0.13162
0.001669,-0.123028
0.0016695,-0.13162
0.00167,-0.125176
0.0016705,-0.133768
0.001671,-0.123028
0.0016715,-0.129472
0.001672,-0.127324
0.0016725,-0.129472
0.001673,-0.127324
0.0016735,-0.125176
0.001674,-0.127324
0.0016745,-0.125176
0.001675,-0.13162
0.0016755,-0.125176
0.001676,-0.127324
0.0016765,-0.127324
0.001677,-0.127324
0.0016775,-0.125176
0.001678,-0.125176
0.0016785,-0.13162
0.001679,-0.127324
0.0016795,-0.133768
0.00168,-0.123028
0.0016805,-0.133768
0.001681,-0.123028
0.0016815,-0.13162
0.001682,-0.123028
0.0016825,-0.133768
0.001683,-0.125176
0.0016835,-0.129472
0.001684,-0.125176
0.0016845,-0.129472
0.001685,-0.123028
0.0016855,-0.123028
0.001686,-0.125176
0.0016865,-0.127324
0.001687,-0.129472
0.0016875,-0.123028
0.001688,-0.127324
0.0016885,-0.129472
0.001689,-0.129472
0.0016895,-0.123028
0.00169,-0.125176
0.0016905,-0.129472
0.001691,-0.125176
0.0016915,-0.125176
0.001692,-0.125176
0.0016925,-0.133768
0.001693,-0.125176
0.0016935,-0.13162
0.001694,-0.12088
0.0016945,-0.129472
0.001695,-0.127324
0.0016955,-0.129472
0.001696,-0.123028
0.0016965,-0.13162
0.001697,-0.129472
0.0016975,-0.125176
0.001698,-0.129472
0.0016985,-0.129472
0.001699,-0.13162
0.0016995,-0.12088
0.0017,-0.133768
0.0017005,-0.129472
0.001701,-0.129472
0.0017015,-0.123028
0.001702,-0.127324
0.0017025,-0.129472
0.001703,-0.123028
0.0017035,-0.127324
0.001704,-0.123028
0.0017045,-0.13162
0.001705,-0.125176
0.0017055,-0.13162
0.001706,-0.123028
0.0017065,-0.135916
0.001707,-0.125176
0.0017075,-0.129472
0.001708,-0.123028
0.0017085,-0.13162
0.001709,-0.13162
0.0017095,-0.125176
0.00171,-0.129472
0.0017105,-0.127324
0.001711,-0.13162
0.0017115,-0.12088
0.001712,-0.129472
0.0017125,-0.127324
0.001713,-0.129472
0.0017135,-0.12088
0.001714,-0.125176
0.0017145,-0.129472
0.001715,-0.125176
0.0017155,-0.125176
0.001716,-0.12088
0.0017165,-0.127324
0.001717,-0.125176
0.0017175,-0.127324
0.001718,-0.118732
0.0017185,-0.129472
0.001719,-0.125176
0.0017195,-0.123028
0.00172,-0.125176
0.0017205,-0.127324
0.001721,-0.129472
0.0017215,-0.125176
0.001722,-0.125176
0.0017225,-0.125176
0.001723,-0.129472
0.0017235,-0.123028
0.001724,-0.127324
0.0017245,-0.12088
0.001725,-0.129472
0.0017255,-0.118732
0.001726,-0.129472
0.0017265,-0.123028
0.001727,-0.125176
0.0017275,-0.123028
0.001728,-0.123028
0.0017285,-0.129472
0.001729,-0.127324
0.0017295,-0.129472
0.00173,-0.125176
0.0017305,-0.13162
0.001731,-0.129472
0.0017315,-0.13162
0.001732,-0.127324
0.0017325,-0.133768
0.001733,-0.129472
0.0017335,-0.127324
0.001734,-0.127324
0.0017345,-0.129472
0.001735,-0.135916
0.0017355,-0.125176
0.001736,-0.133768
0.0017365,-0.12088
0.001737,-0.133768
0.0017375,-0.125176
0.001738,-0.129472
0.0017385,-0.127324
0.001739,-0.13162
0.0017395,-0.127324
0.00174,-0.127324
0.0017405,-0.13162
0.001741,-0.129472
0.0017415,-0.127324
0.001742,-0.123028
0.0017425,-0.129472
0.001743,-0.125176
0.0017435,-0.13162
0.001744,-0.127324
0.0017445,-0.13162
0.001745,-0.127324
0.0017455,-0.127324
0.001746,-0.125176
0.0017465,-0.127324
0.001747,-0.129472
0.0017475,-0.125176
0.001748,-0.129472
0.0017485,-0.123028
0.001749,-0.13162
0.0017495,-0.125176
0.00175,-0.127324
0.0017505,-0.125176
0.001751,-0.129472
0.0017515,-0.123028
0.001752,-0.127324
0.0017525,-0.127324
0.001753,-0.125176
0.0017535,-0.127324
0.001754,-0.123028
0.0017545,-0.127324
0.001755,-0.127324
0.0017555,-0.129472
0.001756,-0.12088
0.0017565,-0.127324
0.001757,-0.127324
0.0017575,-0.129472
0.001758,-0.127324
0.0017585,-0.125176
0.001759,-0.13162
0.0017595,-0.127324
0.00176,-0.129472
0.0017605,-0.125176
0.001761,-0.133768
0.0017615,-0.125176
0.001762,-0.129472
0.0017625,-0.12088
0.001763,-0.13162
0.0017635,-0.127324
0.001764,-0.129472
0.0017645,-0.127324
0.001765,-0.127324
0.0017655,-0.129472
0.001766,-0.125176
0.0017665,-0.127324
0.001767,-0.127324
0.0017675,-0.129472
0.001768,-0.12088
0.0017685,-0.125176
0.001769,-0.127324
0.0017695,-0.127324
0.00177,-0.123028
0.0017705,-0.123028
0.001771,-0.129472
0.0017715,-0.12088
0.001772,-0.127324
0.0017725,-0.12088
0.001773,-0.13162
0.0017735,-0.125176
0.001774,-0.125176
0.0017745,-0.118732
0.001775,-0.129472
0.0017755,-0.12088
0.001776,-0.125176
0.0017765,-0.123028
0.001777,-0.127324
0.0017775,-0.127324
0.001778,-0.123028
0.0017785,-0.127324
0.001779,-0.125176
0.0017795,-0.13162
0.00178,-0.12088
0.0017805,-0.127324
0.001781,-0.127324
0.0017815,-0.129472
0.001782,-0.125176
0.0017825,-0.125176
0.001783,-0.13162
0.0017835,-0.123028
0.001784,-0.127324
0.0017845,-0.123028
0.001785,-0.13162
0.0017855,-0.125176
0.001786,-0.127324
0.0017865,-0.118732
0.001787,-0.129472
0.0017875,-0.12088
0.001788,-0.127324
0.0017885,-0.118732
0.001789,-0.127324
0.0017895,-0.129472
0.00179,-0.123028
0.0017905,-0.127324
0.001791,-0.127324
0.0017915,-0.133768
0.001792,-0.12088
0.0017925,-0.129472
0.001793,-0.125176
0.0017935,-0.129472
0.001794,-0.118732
0.0017945,-0.127324
0.001795,-0.125176
0.0017955,-0.127324
0.001796,-0.127324
0.0017965,-0.12088
0.001797,-0.129472
0.0017975,-0.127324
0.001798,-0.129472
0.0017985,-0.123028
0.001799,-0.13162
0.0017995,-0.125176
0.0018,-0.127324
0.0018005,-0.125176
0.001801,-0.129472
0.0018015,-0.129472
0.001802,-0.127324
0.0018025,-0.127324
0.001803,-0.125176
0.0018035,-0.13162
0.001804,-0.12088
0.0018045,-0.127324
0.001805,-0.127324
0.0018055,-0.13162
0.001806,-0.123028
0.0018065,-0.127324
0.001807,-0.125176
0.0018075,-0.127324
0.001808,-0.127324
0.0018085,-0.12088
0.001809,-0.13162
0.0018095,-0.129472
0.00181,-0.13162
0.0018105,-0.123028
0.001811,-0.13162
0.0018115,-0.125176
0.001812,-0.127324
0.0018125,-0.125176
0.001813,-0.127324
0.0018135,-0.127324
0.001814,-0.127324
0.0018145,-0.129472
0.001815,-0.125176
0.0018155,-0.13162
0.001816,-0.123028
0.0018165,-0.129472
0.001817,-0.125176
0.0018175,-0.129472
0.001818,-0.12088
0.0018185,-0.127324
0.001819,-0.125176
0.0018195,-0.129472
0.00182,-0.123028
0.0018205,-0.125176
0.001821,-0.125176
0.0018215,-0.127324
0.001822,-0.129472
0.0018225,-0.123028
0.001823,-0.129472
0.0018235,-0.125176
0.001824,-0.129472
0.0018245,-0.127324
0.001825,-0.127324
0.0018255,-0.125176
0.001826,-0.123028
0.0018265,-0.129472
0.001827,-0.127324
0.0018275,-0.13162
0.001828,-0.127324
0.0018285,-0.13162
0.001829,-0.125176
0.0018295,-0.13162
0.00183,-0.123028
0.0018305,-0.13162
0.001831,-0.127324
0.0018315,-0.13162
0.001832,-0.12088
0.0018325,-0.127324
0.001833,-0.127324
0.0018335,-0.127324
0.001834,-0.13162
0.0018345,-0.125176
0.001835,-0.129472
0.0018355,-0.123028
0.001836,-0.13162
0.0018365,-0.127324
0.001837,-0.127324
0.0018375,-0.125176
0.001838,-0.127324
0.0018385,-0.125176
0.001839,-0.12088
0.0018395,-0.129472
0.00184,-0.123028
0.0018405,-0.129472
0.001841,-0.125176
0.0018415,-0.133768
0.001842,-0.123028
0.0018425,-0.13162
0.001843,-0.127324
0.0018435,-0.13162
0.001844,-0.125176
0.0018445,-0.129472
0.001845,-0.127324
0.0018455,-0.125176
0.001846,-0.129472
0.0018465,-0.123028
0.001847,-0.129472
0.0018475,-0.125176
0.001848,-0.13162
0.0018485,-0.125176
0.001849,-0.127324
0.0018495,-0.127324
0.00185,-0.129472
0.0018505,-0.129472
0.001851,-0.127324
0.0018515,-0.133768
0.001852,-0.125176
0.0018525,-0.129472
0.001853,-0.123028
0.0018535,-0.133768
0.001854,-0.123028
0.0018545,-0.127324
0.001855,-0.123028
0.0018555,-0.129472
0.001856,-0.125176
0.0018565,-0.127324
0.001857,-0.123028
0.0018575,-0.127324
0.001858,-0.129472
0.0018585,-0.123028
0.001859,-0.125176
0.0018595,-0.125176
0.00186,-0.129472
0.0018605,-0.12088
0.001861,-0.125176
0.0018615,-0.127324
0.001862,-0.125176
0.0018625,-0.118732
0.001863,-0.12088
0.0018635,-0.13162
0.001864,-0.125176
0.0018645,-0.127324
0.001865,-0.118732
0.0018655,-0.133768
0.001866,-0.127324
0.0018665,-0.125176
0.001867,-0.123028
0.0018675,-0.129472
0.001868,-0.129472
0.0018685,-0.125176
0.001869,-0.123028
0.0018695,-0.129472
0.00187,-0.129472
0.0018705,-0.123028
0.001871,-0.125176
0.0018715,-0.127324
0.001872,-0.129472
0.0018725,-0.12088
0.001873,-0.127324
0.0018735,-0.129472
0.001874,-0.127324
0.0018745,-0.12088
0.001875,-0.12088
0.0018755,-0.127324
0.001876,-0.123028
0.0018765,-0.129472
0.001877,-0.118732
0.0018775,-0.13162
0.001878,-0.123028
0.0018785,-0.129472
0.001879,-0.123028
0.0018795,-0.133768
0.00188,-0.127324
0.0018805,-0.127324
0.001881,-0.127324
0.0018815,-0.129472
0.001882,-0.13162
0.0018825,-0.125176
0.001883,-0.129472
0.0018835,-0.127324
0.001884,-0.133768
0.0018845,-0.125176
0.001885,-0.13162
0.0018855,-0.129472
0.001886,-0.133768
0.0018865,-0.125176
0.001887,-0.127324
0.0018875,-0.129472
0.001888,-0.129472
0.0018885,-0.13162
0.001889,-0.123028
0.0018895,-0.13162
0.00189,-0.127324
0.0018905,-0.13162
0.001891,-0.123028
0.0018915,-0.13162
0.001892,-0.127324
0.0018925,-0.129472
0.001893,-0.123028
0.0018935,-0.127324
0.001894,-0.13162
0.0018945,-0.123028
0.001895,-0.13162
0.0018955,-0.123028
0.001896,-0.133768
0.0018965,-0.118732
0.001897,-0.129472
0.0018975,-0.125176
0.001898,-0.129472
0.0018985,-0.127324
0.001899,-0.127324
0.0018995,-0.129472
0.0019,-0.129472
0.0019005,-0.129472
0.001901,-0.125176
0.0019015,-0.133768
0.001902,-0.125176
0.0019025,-0.129472
0.001903,-0.123028
0.0019035,-0.13162
0.001904,-0.125176
0.0019045,-0.129472
0.001905,-0.127324
0.0019055,-0.129472
0.001906,-0.129472
0.0019065,-0.125176
0.001907,-0.129472
0.0019075,-0.123028
0.001908,-0.13162
0.0019085,-0.12088
0.001909,-0.129472
0.0019095,-0.123028
0.00191,-0.13162
0.0019105,-0.12088
0.001911,-0.127324
0.0019115,-0.127324
0.001912,-0.129472
0.0019125,-0.127324
0.001913,-0.125176
0.0019135,-0.129472
0.001914,-0.127324
0.0019145,-0.129472
0.001915,-0.125176
0.0019155,-0.133768
0.001916,-0.125176
0.0019165,-0.129472
0.001917,-0.125176
0.0019175,-0.127324
0.001918,-0.127324
0.0019185,-0.125176
0.001919,-0.129472
0.0019195,-0.127324
0.00192,-0.129472
0.0019205,-0.125176
0.001921,-0.129472
0.0019215,-0.125176
0.001922,-0.13162
0.0019225,-0.12088
0.001923,-0.127324
0.0019235,-0.125176
0.001924,-0.129472
0.0019245,-0.125176
0.001925,-0.127324
0.0019255,-0.127324
0.001926,-0.125176
0.0019265,-0.13162
0.001927,-0.123028
0.0019275,-0.129472
0.001928,-0.127324
0.0019285,-0.13162
0.001929,-0.12088
0.0019295,-0.127324
0.00193,-0.127324
0.0019305,-0.125176
0.001931,-0.127324
0.0019315,-0.123028
0.001932,-0.135916
0.0019325,-0.127324
0.001933,-0.129472
0.0019335,-0.125176
0.001934,-0.133768
0.0019345,-0.125176
0.001935,-0.129472
0.0019355,-0.125176
0.001936,-0.13162
0.0019365,-0.127324
0.001937,-0.125176
0.0019375,-0.125176
0.001938,-0.127324
0.0019385,-0.129472
0.001939,-0.12088
0.0019395,-0.125176
0.00194,-0.125176
0.0019405,-0.127324
0.001941,-0.127324
0.0019415,-0.125176
0.001942,-0.13162
0.0019425,-0.127324
0.001943,-0.127324
0.0019435,-0.12088
0.001944,-0.133768
0.0019445,-0.127324
0.001945,-0.133768
0.0019455,-0.12088
0.001946,-0.133768
0.0019465,-0.125176
0.001947,-0.129472
0.0019475,-0.123028
0.001948,-0.13162
0.0019485,-0.125176
0.001949,-0.125176
0.0019495,-0.127324
0.00195,-0.129472
0.0019505,-0.133768
0.001951,-0.123028
0.0019515,-0.13162
0.001952,-0.129472
0.0019525,-0.13162
0.001953,-0.123028
0.0019535,-0.127324
0.001954,-0.129472
0.0019545,-0.127324
0.001955,-0.125176
0.0019555,-0.123028
0.001956,-0.133768
0.0019565,-0.125176
0.001957,-0.13162
0.0019575,-0.118732
0.001958,-0.135916
0.0019585,-0.125176
0.001959,-0.129472
0.0019595,-0.123028
0.00196,-0.129472
0.0019605,-0.127324
0.001961,-0.129472
0.0019615,-0.127324
0.001962,-0.129472
0.0019625,-0.133768
0.001963,-0.125176
0.0019635,-0.127324
0.001964,-0.125176
0.0019645,-0.13162
0.001965,-0.12088
0.0019655,-0.127324
0.001966,-0.125176
0.0019665,-0.133768
0.001967,-0.127324
0.0019675,-0.127324
0.001968,-0.129472
0.0019685,-0.125176
0.001969,-0.13162
0.0019695,-0.116583
0.00197,-0.13162
0.0019705,-0.123028
0.001971,-0.13162
0.0019715,-0.12088
0.001972,-0.129472
0.0019725,-0.127324
0.001973,-0.127324
0.0019735,-0.127324
0.001974,-0.125176
0.0019745,-0.13162
0.001975,-0.123028
0.0019755,-0.127324
0.001976,-0.127324
0.0019765,-0.13162
0.001977,-0.123028
0.0019775,-0.13162
0.001978,-0.123028
0.0019785,-0.129472
0.001979,-0.123028
0.0019795,-0.123028
0.00198,-0.127324
0.0019805,-0.127324
0.001981,-0.129472
0.0019815,-0.123028
0.001982,-0.133768
0.0019825,-0.125176
0.001983,-0.129472
0.0019835,-0.123028
0.001984,-0.13162
0.0019845,-0.127324
0.001985,-0.127324
0.0019855,-0.127324
0.001986,-0.127324
0.0019865,-0.129472
0.001987,-0.125176
0.0019875,-0.129472
0.001988,-0.127324
0.0019885,-0.13162
0.001989,-0.123028
0.0019895,-0.129472
0.00199,-0.123028
0.0019905,-0.13162
0.001991,-0.123028
0.0019915,-0.125176
0.001992,-0.127324
0.0019925,-0.129472
0.001993,-0.127324
0.0019935,-0.123028
0.001994,-0.129472
0.0019945,-0.125176
0.001995,-0.125176
0.0019955,-0.125176
0.001996,-0.127324
0.0019965,-0.127324
0.001997,-0.129472
0.0019975,-0.125176
0.001998,-0.125176
0.0019985,-0.129472
0.001999,-0.125176
0.0019995,-0.127324
0.002,-0.123028
0.0020005,-0.13162
0.002001,-0.123028
0.0020015,-0.129472
0.002002,-0.123028
0.0020025,-0.13162
0.002003,-0.12088
0.0020035,-0.127324
0.002004,-0.129472
0.0020045,-0.129472
0.002005,-0.125176
0.0020055,-0.125176
0.002006,-0.129472
0.0020065,-0.127324
0.002007,-0.13162
0.0020075,-0.125176
0.002008,-0.13162
0.0020085,-0.127324
0.002009,-0.133768
0.0020095,-0.129472
0.00201,-0.127324
0.0020105,-0.129472
0.002011,-0.125176
0.0020115,-0.13162
0.002012,-0.125176
0.0020125,-0.135916
0.002013,-0.125176
0.0020135,-0.129472
0.002014,-0.127324
0.0020145,-0.133768
0.002015,-0.123028
0.0020155,-0.129472
0.002016,-0.125176
0.0020165,-0.133768
0.002017,-0.125176
0.0020175,-0.127324
0.002018,-0.127324
0.0020185,-0.125176
0.002019,-0.13162
0.0020195,-0.125176
0.00202,-0.127324
0.0020205,-0.123028
0.002021,-0.127324
0.0020215,-0.123028
0.002022,-0.125176
0.0020225,-0.127324
0.002023,-0.12088
0.0020235,-0.125176
0.002024,-0.123028
0.0020245,-0.133768
0.002025,-0.118732
0.0020255,-0.129472
0.002026,-0.12088
0.0020265,-0.13162
0.002027,-0.123028
0.0020275,-0.127324
0.002028,-0.127324
0.0020285,-0.13162
0.002029,-0.125176
0.0020295,-0.125176
0.00203,-0.125176
0.0020305,-0.125176
0.002031,-0.13162
0.0020315,-0.125176
0.002032,-0.129472
0.0020325,-0.127324
0.002033,-0.13162
0.0020335,-0.127324
0.002034,-0.125176
0.0020345,-0.13162
0.002035,-0.129472
0.0020355,-0.129472
0.002036,-0.125176
0.0020365,-0.133768
0.002037,-0.125176
0.0020375,-0.13162
0.002038,-0.125176
0.0020385,-0.133768
0.002039,-0.125176
0.0020395,-0.13162
0.00204,-0.12088
0.0020405,-0.129472
0.002041,-0.125176
0.0020415,-0.125176
0.002042,-0.127324
0.0020425,-0.125176
0.002043,-0.13162
0.0020435,-0.12088
0.002044,-0.127324
0.0020445,-0.125176
0.002045,-0.129472
0.0020455,-0.123028
0.002046,-0.127324
0.0020465,-0.129472
0.002047,-0.127324
0.0020475,-0.127324
0.002048,-0.123028
0.0020485,-0.13162
0.002049,-0.123028
0.0020495,-0.129472
0.00205,-0.123028
0.0020505,-0.133768
0.002051,-0.125176
0.0020515,-0.129472
0.002052,-0.123028
0.0020525,-0.13162
0.002053,-0.127324
0.0020535,-0.127324
0.002054,-0.125176
0.0020545,-0.127324
0.002055,-0.13162
0.0020555,-0.125176
0.002056,-0.13162
0.0020565,-0.127324
0.002057,-0.13162
0.0020575,-0.127324
0.002058,-0.13162
0.0020585,-0.129472
0.002059,-0.129472
0.0020595,-0.127324
0.00206,-0.123028
0.0020605,-0.129472
0.002061,-0.125176
0.0020615,-0.129472
0.002062,-0.12088
0.0020625,-0.133768
0.002063,-0.125176
0.0020635,-0.127324
0.002064,-0.123028
0.0020645,-0.129472
0.002065,-0.125176
0.0020655,-0.125176
0.002066,-0.123028
0.0020665,-0.123028
0.002067,-0.129472
0.0020675,-0.118732
0.002068,-0.125176
0.0020685,-0.12088
0.002069,-0.127324
0.0020695,-0.12088
0.00207,-0.127324
0.0020705,-0.125176
0.002071,-0.127324
0.0020715,-0.123028
0.002072,-0.123028
0.0020725,-0.129472
0.002073,-0.127324
0.0020735,-0.127324
0.002074,-0.12088
0.0020745,-0.129472
0.002075,-0.125176
0.0020755,-0.129472
0.002076,-0.123028
0.0020765,-0.129472
0.002077,-0.127324
0.0020775,-0.125176
0.002078,-0.127324
0.0020785,-0.125176
0.002079,-0.133768
0.0020795,-0.123028
0.00208,-0.127324
0.0020805,-0.123028
0.002081,-0.133768
0.0020815,-0.123028
0.002082,-0.13162
0.0020825,-0.125176
0.002083,-0.13162
0.0020835,-0.125176
0.002084,-0.127324
0.0020845,-0.127324
0.002085,-0.129472
0.0020855,-0.13162
0.002086,-0.125176
0.0020865,-0.129472
0.002087,-0.129472
0.0020875,-0.13162
0.002088,-0.125176
0.0020885,-0.129472
0.002089,-0.129472
0.0020895,-0.127324
0.00209,-0.125176
0.0020905,-0.127324
0.002091,-0.129472
0.0020915,-0.125176
0.002092,-0.129472
0.0020925,-0.123028
0.002093,-0.133768
0.0020935,-0.125176
0.002094,-0.129472
0.0020945,-0.12088
0.002095,-0.133768
0.0020955,-0.125176
0.002096,-0.129472
0.0020965,-0.127324
0.002097,-0.129472
0.0020975,-0.129472
0.002098,-0.125176
0.0020985,-0.13162
0.002099,-0.129472
0.0020995,-0.133768
0.0021,-0.125176
0.0021005,-0.129472
0.002101,-0.129472
0.0021015,-0.129472
0.002102,-0.127324
0.0021025,-0.127324
0.002103,-0.129472
0.0021035,-0.127324
0.002104,-0.13162
0.0021045,-0.123028
0.002105,-0.133768
0.0021055,-0.123028
0.002106,-0.129472
0.0021065,-0.125176
0.002107,-0.133768
0.0021075,-0.123028
0.002108,-0.127324
0.0021085,-0.125176
0.002109,-0.129472
0.0021095,-0.127324
0.00211,-0.125176
0.0021105,-0.125176
0.002111,-0.127324
0.0021115,-0.13162
0.002112,-0.123028
0.0021125,-0.127324
0.002113,-0.129472
0.0021135,-0.129472
0.002114,-0.125176
0.0021145,-0.129472
0.002115,-0.129472
0.0021155,-0.125176
0.002116,-0.127324
0.0021165,-0.123028
0.002117,-0.133768
0.0021175,-0.125176
0.002118,-0.13162
0.0021185,-0.127324
0.002119,-0.13162
0.0021195,-0.125176
0.00212,-0.13162
0.0021205,-0.127324
0.002121,-0.129472
0.0021215,-0.127324
0.002122,-0.129472
0.0021225,-0.13162
0.002123,-0.127324
0.0021235,-0.129472
0.002124,-0.125176
0.0021245,-0.127324
0.002125,-0.127324
0.0021255,-0.129472
0.002126,-0.127324
0.0021265,-0.125176
0.002127,-0.13162
0.0021275,-0.125176
0.002128,-0.13162
0.0021285,-0.123028
0.002129,-0.133768
0.0021295,-0.123028
0.00213,-0.129472
0.0021305,-0.123028
0.002131,-0.129472
0.0021315,-0.12088
0.002132,-0.127324
0.0021325,-0.123028
0.002133,-0.13162
0.0021335,-0.127324
0.002134,-0.123028
0.0021345,-0.127324
0.002135,-0.125176
0.0021355,-0.127324
0.002136,-0.125176
0.0021365,-0.129472
0.002137,-0.127324
0.0021375,-0.129472
0.002138,-0.123028
0.0021385,-0.127324
0.002139,-0.13162
0.0021395,-0.127324
0.00214,-0.127324
0.0021405,-0.123028
0.002141,-0.13162
0.0021415,-0.125176
0.002142,-0.129472
0.0021425,-0.118732
0.002143,-0.13162
0.0021435,-0.123028
0.002144,-0.129472
0.0021445,-0.123028
0.002145,-0.127324
0.0021455,-0.129472
0.002146,-0.123028
0.0021465,-0.127324
0.002147,-0.129472
0.0021475,-0.13162
0.002148,-0.12088
0.0021485,-0.129472
0.002149,-0.125176
0.0021495,-0.127324
0.00215,-0.123028
0.0021505,-0.125176
0.002151,-0.125176
0.0021515,-0.127324
0.002152,-0.127324
0.0021525,-0.12088
0.002153,-0.129472
0.0021535,-0.125176
0.002154,-0.13162
0.0021545,-0.123028
0.002155,-0.133768
0.0021555,-0.12088
0.002156,-0.127324
0.0021565,-0.127324
0.002157,-0.127324
0.0021575,-0.129472
0.002158,-0.129472
0.0021585,-0.125176
0.002159,-0.125176
0.0021595,-0.133768
0.00216,-0.12088
0.0021605,-0.13162
0.002161,-0.125176
0.0021615,-0.129472
0.002162,-0.12088
0.0021625,-0.127324
0.002163,-0.125176
0.0021635,-0.129472
0.002164,-0.127324
0.0021645,-0.125176
0.002165,-0.129472
0.0021655,-0.127324
0.002166,-0.129472
0.0021665,-0.123028
0.002167,-0.13162
0.0021675,-0.127324
0.002168,-0.127324
0.0021685,-0.125176
0.002169,-0.129472
0.0021695,-0.129472
0.00217,-0.123028
0.0021705,-0.129472
0.002171,-0.123028
0.0021715,-0.129472
0.002172,-0.12088
0.0021725,-0.129472
0.002173,-0.12088
0.0021735,-0.133768
0.002174,-0.123028
0.0021745,-0.127324
0.002175,-0.123028
0.0021755,-0.129472
0.002176,-0.127324
0.0021765,-0.125176
0.002177,-0.123028
0.0021775,-0.127324
0.002178,-0.129472
0.0021785,-0.123028
0.002179,-0.129472
0.0021795,-0.127324
0.00218,-0.129472
0.0021805,-0.125176
0.002181,-0.127324
0.0021815,-0.125176
0.002182,-0.125176
0.0021825,-0.129472
0.002183,-0.123028
0.0021835,-0.127324
0.002184,-0.123028
0.0021845,-0.13162
0.002185,-0.12088
0.0021855,-0.13162
0.002186,-0.123028
0.0021865,-0.127324
0.002187,-0.123028
0.0021875,-0.133768
0.002188,-0.127324
0.0021885,-0.127324
0.002189,-0.13162
0.0021895,-0.129472
0.00219,-0.13162
0.0021905,-0.127324
0.002191,-0.13162
0.0021915,-0.127324
0.002192,-0.13162
0.0021925,-0.13162
0.002193,-0.129472
0.0021935,-0.127324
0.002194,-0.129472
0.0021945,-0.129472
0.002195,-0.125176
0.0021955,-0.129472
0.002196,-0.125176
0.0021965,-0.127324
0.002197,-0.12088
0.0021975,-0.133768
0.002198,-0.125176
0.0021985,-0.125176
0.002199,-0.123028
0.0021995,-0.13162
0.0022,-0.123028
0.0022005,-0.123028
0.002201,-0.125176
0.0022015,-0.127324
0.002202,-0.125176
0.0022025,-0.12088
0.002203,-0.129472
0.0022035,-0.125176
0.002204,-0.127324
0.0022045,-0.123028
0.002205,-0.129472
0.0022055,-0.125176
0.002206,-0.127324
0.0022065,-0.125176
0.002207,-0.125176
0.0022075,-0.133768
0.002208,-0.123028
0.0022085,-0.127324
0.002209,-0.123028
0.0022095,-0.13162
0.00221,-0.129472
0.0022105,-0.127324
0.002211,-0.12088
0.0022115,-0.133768
0.002212,-0.125176
0.0022125,-0.127324
0.002213,-0.125176
0.0022135,-0.129472
0.002214,-0.129472
0.0022145,-0.127324
0.002215,-0.127324
0.0022155,-0.125176
0.002216,-0.13162
0.0022165,-0.123028
0.002217,-0.127324
0.0022175,-0.129472
0.002218,-0.127324
0.0022185,-0.12088
0.002219,-0.129472
0.0022195,-0.127324
0.00222,-0.123028
0.0022205,-0.127324
0.002221,-0.12088
0.0022215,-0.13162
0.002222,-0.123028
0.0022225,-0.127324
0.002223,-0.118732
0.0022235,-0.13162
0.002224,-0.127324
0.0022245,-0.125176
0.002225,-0.12088
0.0022255,-0.129472
0.002226,-0.127324
0.0022265,-0.123028
0.002227,-0.127324
0.0022275,-0.127324
0.002228,-0.13162
0.0022285,-0.12088
0.002229,-0.127324
0.0022295,-0.127324
0.00223,-0.13162
0.0022305,-0.125176
0.002231,-0.125176
0.0022315,-0.129472
0.002232,-0.125176
0.0022325,-0.129472
0.002233,-0.123028
0.0022335,-0.13162
0.002234,-0.125176
0.0022345,-0.129472
0.002235,-0.123028
0.0022355,-0.13162
0.002236,-0.129472
0.0022365,-0.125176
0.002237,-0.123028
0.0022375,-0.127324
0.002238,-0.129472
0.0022385,-0.123028
0.002239,-0.129472
0.0022395,-0.127324
0.00224,-0.129472
0.0022405,-0.12088
0.002241,-0.127324
0.0022415,-0.123028
0.002242,-0.129472
0.0022425,-0.123028
0.002243,-0.125176
0.0022435,-0.125176
0.002244,-0.127324
0.0022445,-0.127324
0.002245,-0.123028
0.0022455,-0.127324
0.002246,-0.127324
0.0022465,-0.13162
0.002247,-0.123028
0.0022475,-0.129472
0.002248,-0.127324
0.0022485,-0.129472
0.002249,-0.127324
0.0022495,-0.127324
0.00225,-0.129472
0.0022505,-0.123028
0.002251,-0.129472
0.0022515,-0.125176
0.002252,-0.133768
0.0022525,-0.123028
0.002253,-0.129472
0.0022535,-0.123028
0.002254,-0.133768
0.0022545,-0.123028
0.002255,-0.127324
0.0022555,-0.123028
0.002256,-0.127324
0.0022565,-0.127324
0.002257,-0.125176
0.0022575,-0.127324
0.002258,-0.127324
0.0022585,-0.127324
0.002259,-0.123028
0.0022595,-0.13162
0.00226,-0.127324
0.0022605,-0.129472
0.002261,-0.123028
0.0022615,-0.127324
0.002262,-0.129472
0.0022625,-0.125176
0.002263,-0.129472
0.0022635,-0.123028
0.002264,-0.129472
0.0022645,-0.125176
0.002265,-0.129472
0.0022655,-0.12088
0.002266,-0.133768
0.0022665,-0.123028
0.002267,-0.129472
0.0022675,-0.125176
0.002268,-0.13162
0.0022685,-0.127324
0.002269,-0.125176
0.0022695,-0.129472
0.00227,-0.129472
0.0022705,-0.13162
0.002271,-0.125176
0.0022715,-0.13162
0.002272,-0.125176
0.0022725,-0.129472
0.002273,-0.127324
0.0022735,-0.129472
0.002274,-0.129472
0.0022745,-0.129472
0.002275,-0.127324
0.0022755,-0.125176
0.002276,-0.135916
0.0022765,-0.127324
0.002277,-0.125176
0.0022775,-0.123028
0.002278,-0.133768
0.0022785,-0.118732
0.002279,-0.129472
0.0022795,-0.125176
0.00228,-0.135916
0.0022805,-0.123028
0.002281,-0.125176
0.0022815,-0.133768
0.002282,-0.13162
0.0022825,-0.13162
0.002283,-0.127324
0.0022835,-0.13162
0.002284,-0.129472
0.0022845,-0.13162
0.002285,-0.127324
0.0022855,-0.129472
0.002286,-0.129472
0.0022865,-0.127324
0.002287,-0.129472
0.0022875,-0.127324
0.002288,-0.133768
0.0022885,-0.125176
0.002289,-0.13162
0.0022895,-0.123028
0.00229,-0.135916
0.0022905,-0.123028
0.002291,-0.127324
0.0022915,-0.123028
0.002292,-0.13162
0.0022925,-0.123028
0.002293,-0.125176
0.0022935,-0.125176
0.002294,-0.127324
0.0022945,-0.127324
0.002295,-0.123028
0.0022955,-0.127324
0.002296,-0.125176
0.0022965,-0.13162
0.002297,-0.12088
0.0022975,-0.125176
0.002298,-0.129472
0.0022985,-0.127324
0.002299,-0.125176
0.0022995,-0.123028
0.0023,-0.13162
0.0023005,-0.13162
0.002301,-0.127324
0.0023015,-0.123028
0.002302,-0.13162
0.0023025,-0.12088
0.002303,-0.13162
0.0023035,-0.12088
0.002304,-0.129472
0.0023045,-0.123028
0.002305,-0.125176
0.0023055,-0.125176
0.002306,-0.125176
0.0023065,-0.125176
0.002307,-0.123028
0.0023075,-0.129472
0.002308,-0.125176
0.0023085,-0.13162
0.002309,-0.123028
0.0023095,-0.125176
0.00231,-0.127324
0.0023105,-0.127324
0.002311,-0.127324
0.0023115,-0.123028
0.002312,-0.13162
0.0023125,-0.125176
0.002313,-0.13162
0.0023135,-0.12088
0.002314,-0.13162
0.0023145,-0.123028
0.002315,-0.129472
0.0023155,-0.12088
0.002316,-0.13162
0.0023165,-0.127324
0.002317,-0.127324
0.0023175,-0.127324
0.002318,-0.125176
0.0023185,-0.133768
0.002319,-0.123028
0.0023195,-0.127324
0.00232,-0.127324
0.0023205,-0.13162
0.002321,-0.12088
0.0023215,-0.129472
0.002322,-0.12088
0.0023225,-0.127324
0.002323,-0.127324
0.0023235,-0.125176
0.002324,-0.127324
0.0023245,-0.127324
0.002325,-0.133768
0.0023255,-0.12088
0.002326,-0.13162
0.0023265,-0.127324
0.002327,-0.129472
0.0023275,-0.123028
0.002328,-0.129472
0.0023285,-0.129472
0.002329,-0.127324
0.0023295,-0.127324
0.00233,-0.125176
0.0023305,-0.129472
0.002331,-0.12088
0.0023315,-0.129472
0.002332,-0.127324
0.0023325,-0.13162
0.002333,-0.12088
0.0023335,-0.13162
0.002334,-0.123028
0.0023345,-0.13162
0.002335,-0.123028
0.0023355,-0.127324
0.002336,-0.125176
0.0023365,-0.125176
0.002337,-0.125176
0.0023375,-0.12088
0.002338,-0.129472
0.0023385,-0.123028
0.002339,-0.127324
0.0023395,-0.123028
0.00234,-0.129472
0.0023405,-0.127324
0.002341,-0.127324
0.0023415,-0.127324
0.002342,-0.125176
0.0023425,-0.129472
0.002343,-0.125176
0.0023435,-0.129472
0.002344,-0.125176
0.0023445,-0.133768
0.002345,-0.12088
0.0023455,-0.133768
0.002346,-0.125176
0.0023465,-0.13162
0.002347,-0.125176
0.0023475,-0.129472
0.002348,-0.127324
0.0023485,-0.13162
0.002349,-0.127324
0.0023495,-0.125176
0.00235,-0.129472
0.0023505,-0.13162
0.002351,-0.13162
0.0023515,-0.125176
0.002352,-0.129472
0.0023525,-0.127324
0.002353,-0.129472
0.0023535,-0.123028
0.002354,-0.127324
0.0023545,-0.127324
0.002355,-0.129472
0.0023555,-0.13162
0.002356,-0.123028
0.0023565,-0.13162
0.002357,-0.123028
0.0023575,-0.13162
0.002358,-0.125176
0.0023585,-0.133768
0.002359,-0.123028
0.0023595,-0.129472
0.00236,-0.127324
0.0023605,-0.129472
0.002361,-0.125176
0.0023615,-0.127324
0.002362,-0.129472
0.0023625,-0.127324
0.002363,-0.13162
0.0023635,-0.125176
0.002364,-0.129472
0.0023645,-0.127324
0.002365,-0.13162
0.0023655,-0.127324
0.002366,-0.13162
0.0023665,-0.127324
0.002367,-0.127324
0.0023675,-0.129472
0.002368,-0.125176
0.0023685,-0.133768
0.002369,-0.123028
0.0023695,-0.129472
0.00237,-0.127324
0.0023705,-0.13162
0.002371,-0.123028
0.0023715,-0.125176
0.002372,-0.12088
0.0023725,-0.129472
0.002373,-0.123028
0.0023735,-0.123028
0.002374,-0.123028
0.0023745,-0.12088
0.002375,-0.127324
0.0023755,-0.123028
0.002376,-0.129472
0.0023765,-0.127324
0.002377,-0.127324
0.0023775,-0.12088
0.002378,-0.123028
0.0023785,-0.129472
0.002379,-0.125176
0.0023795,-0.133768
0.00238,-0.12088
0.0023805,-0.13162
0.002381,-0.127324
0.0023815,-0.127324
0.002382,-0.118732
0.0023825,-0.129472
0.002383,-0.125176
0.0023835,-0.125176
0.002384,-0.118732
0.0023845,-0.129472
0.002385,-0.127324
0.0023855,-0.123028
0.002386,-0.127324
0.0023865,-0.127324
0.002387,-0.133768
0.0023875,-0.123028
0.002388,-0.129472
0.0023885,-0.129472
0.002389,-0.13162
0.0023895,-0.123028
0.00239,-0.125176
0.0023905,-0.127324
0.002391,-0.127324
0.0023915,-0.127324
0.002392,-0.125176
0.0023925,-0.13162
0.002393,-0.125176
0.0023935,-0.129472
0.002394,-0.118732
0.0023945,-0.129472
0.002395,-0.125176
0.0023955,-0.127324
0.002396,-0.123028
0.0023965,-0.13162
0.002397,-0.129472
0.0023975,-0.127324
0.002398,-0.125176
0.0023985,-0.129472
0.002399,-0.133768
0.0023995,-0.123028
0.0024,-0.133768
0.0024005,-0.125176
0.002401,-0.129472
0.0024015,-0.123028
0.002402,-0.129472
0.0024025,-0.127324
0.002403,-0.127324
0.0024035,-0.125176
0.002404,-0.123028
0.0024045,-0.129472
0.002405,-0.125176
0.0024055,-0.127324
0.002406,-0.118732
0.0024065,-0.135916
0.002407,-0.123028
0.0024075,-0.125176
0.002408,-0.12088
0.0024085,-0.13162
0.002409,-0.125176
0.0024095,-0.123028
0.00241,-0.127324
0.0024105,-0.125176
0.002411,-0.129472
0.0024115,-0.12088
0.002412,-0.129472
0.0024125,-0.123028
0.002413,-0.13162
0.0024135,-0.123028
0.002414,-0.129472
0.0024145,-0.127324
0.002415,-0.129472
0.0024155,-0.123028
0.002416,-0.125176
0.0024165,-0.129472
0.002417,-0.127324
0.0024175,-0.13162
0.002418,-0.127324
0.0024185,-0.13162
0.002419,-0.125176
0.0024195,-0.127324
0.00242,-0.125176
0.0024205,-0.133768
0.002421,-0.13162
0.0024215,-0.129472
0.002422,-0.13162
0.0024225,-0.129472
0.002423,-0.133768
0.0024235,-0.127324
0.002424,-0.133768
0.0024245,-0.125176
0.002425,-0.133768
0.0024255,-0.127324
0.002426,-0.13162
0.0024265,-0.129472
0.002427,-0.133768
0.0024275,-0.127324
0.002428,-0.129472
0.0024285,-0.13162
0.002429,-0.125176
0.0024295,-0.129472
0.00243,-0.129472
0.0024305,-0.129472
0.002431,-0.127324
0.0024315,-0.129472
0.002432,-0.125176
0.0024325,-0.133768
0.002433,-0.125176
0.0024335,-0.127324
0.002434,-0.129472
0.0024345,-0.129472
0.002435,-0.129472
0.0024355,-0.129472
0.002436,-0.129472
0.0024365,-0.123028
0.002437,-0.133768
0.0024375,-0.125176
0.002438,-0.129472
0.0024385,-0.125176
0.002439,-0.133768
0.0024395,-0.125176
0.00244,-0.127324
0.0024405,-0.127324
0.002441,-0.129472
0.0024415,-0.129472
0.002442,-0.127324
0.0024425,-0.129472
0.002443,-0.129472
0.0024435,-0.13162
0.002444,-0.125176
0.0024445,-0.129472
0.002445,-0.127324
0.0024455,-0.13162
0.002446,-0.129472
0.0024465,-0.127324
0.002447,-0.13162
0.0024475,-0.129472
0.002448,-0.133768
0.0024485,-0.127324
0.002449,-0.133768
0.0024495,-0.125176
0.00245,-0.129472
0.0024505,-0.12088
0.002451,-0.13162
0.0024515,-0.127324
0.002452,-0.127324
0.0024525,-0.127324
0.002453,-0.127324
0.0024535,-0.129472
0.002454,-0.127324
0.0024545,-0.129472
0.002455,-0.125176
0.0024555,-0.133768
0.002456,-0.12088
0.0024565,-0.129472
0.002457,-0.125176
0.0024575,-0.127324
0.002458,-0.123028
0.0024585,-0.123028
0.002459,-0.129472
0.0024595,-0.127324
0.00246,-0.129472
0.0024605,-0.123028
0.002461,-0.13162
0.0024615,-0.123028
0.002462,-0.129472
0.0024625,-0.118732
0.002463,-0.129472
0.0024635,-0.123028
0.002464,-0.127324
0.0024645,-0.12088
0.002465,-0.127324
0.0024655,-0.129472
0.002466,-0.125176
0.0024665,-0.129472
0.002467,-0.127324
0.0024675,-0.133768
0.002468,-0.123028
0.0024685,-0.13162
0.002469,-0.129472
0.0024695,-0.13162
0.00247,-0.125176
0.0024705,-0.127324
0.002471,-0.13162
0.0024715,-0.127324
0.002472,-0.133768
0.0024725,-0.12088
0.002473,-0.129472
0.0024735,-0.123028
0.002474,-0.13162
0.0024745,-0.123028
0.002475,-0.13162
0.0024755,-0.127324
0.002476,-0.127324
0.0024765,-0.125176
0.002477,-0.129472
0.0024775,-0.125176
0.002478,-0.123028
0.0024785,-0.127324
0.002479,-0.127324
0.0024795,-0.13162
0.00248,-0.12088
0.0024805,-0.127324
0.002481,-0.127324
0.0024815,-0.127324
0.002482,-0.125176
0.0024825,-0.12088
0.002483,-0.127324
0.0024835,-0.125176
0.002484,-0.127324
0.0024845,-0.118732
0.002485,-0.127324
0.0024855,-0.123028
0.002486,-0.127324
0.0024865,-0.118732
0.002487,-0.133768
0.0024875,-0.123028
0.002488,-0.127324
0.0024885,-0.12088
0.002489,-0.129472
0.0024895,-0.125176
0.00249,-0.123028
0.0024905,-0.125176
0.002491,-0.125176
0.0024915,-0.133768
0.002492,-0.12088
0.0024925,-0.129472
0.002493,-0.125176
0.0024935,-0.129472
0.002494,-0.12088
0.0024945,-0.127324
0.002495,-0.129472
0.0024955,-0.127324
0.002496,-0.127324
0.0024965,-0.123028
0.002497,-0.13162
0.0024975,-0.127324
0.002498,-0.129472
0.0024985,-0.12088
0.002499,-0.133768
0.0024995,-0.127324
0.0025,-0.13162
0.0025005,-0.127324
0.002501,-0.129472
0.0025015,-0.13162
0.002502,-0.125176
0.0025025,-0.129472
0.002503,-0.127324
0.0025035,-0.133768
0.002504,-0.125176
0.0025045,-0.127324
0.002505,-0.125176
0.0025055,-0.133768
0.002506,-0.123028
0.0025065,-0.125176
0.002507,-0.123028
0.0025075,-0.13162
0.002508,-0.125176
0.0025085,-0.125176
0.002509,-0.129472
0.0025095,-0.129472
0.00251,-0.13162
0.0025105,-0.12088
0.002511,-0.13162
0.0025115,-0.129472
0.002512,-0.129472
0.0025125,-0.127324
0.002513,-0.123028
0.0025135,-0.13162
0.002514,-0.125176
0.0025145,-0.125176
0.002515,-0.123028
0.0025155,-0.13162
0.002516,-0.123028
0.0025165,-0.129472
0.002517,-0.12088
0.0025175,-0.133768
0.002518,-0.118732
0.0025185,-0.129472
0.002519,-0.125176
0.0025195,-0.129472
0.00252,-0.123028
0.0025205,-0.123028
0.002521,-0.127324
0.0025215,-0.129472
0.002522,-0.127324
0.0025225,-0.123028
0.002523,-0.129472
0.0025235,-0.127324
0.002524,-0.127324
0.0025245,-0.12088
0.002525,-0.125176
0.0025255,-0.125176
0.002526,-0.125176
0.0025265,-0.125176
0.002527,-0.12088
0.0025275,-0.129472
0.002528,-0.123028
0.0025285,-0.125176
0.002529,-0.12088
0.0025295,-0.13162
0.00253,-0.123028
0.0025305,-0.129472
0.002531,-0.123028
0.0025315,-0.13162
0.002532,-0.125176
0.0025325,-0.125176
0.002533,-0.127324
0.0025335,-0.125176
0.002534,-0.127324
0.0025345,-0.125176
0.002535,-0.127324
0.0025355,-0.125176
0.002536,-0.13162
0.0025365,-0.127324
0.002537,-0.127324
0.0025375,-0.125176
0.002538,-0.129472
0.0025385,-0.129472
0.002539,-0.125176
0.0025395,-0.13162
0.00254,-0.125176
0.0025405,-0.129472
0.002541,-0.125176
0.0025415,-0.13162
0.002542,-0.125176
0.0025425,-0.13162
0.002543,-0.127324
0.0025435,-0.133768
0.002544,-0.125176
0.0025445,-0.125176
0.002545,-0.125176
0.0025455,-0.129472
0.002546,-0.127324
0.0025465,-0.125176
0.002547,-0.127324
0.0025475,-0.125176
0.002548,-0.125176
0.0025485,-0.123028
0.002549,-0.125176
0.0025495,-0.127324
0.00255,-0.127324
0.0025505,-0.125176
0.002551,-0.12088
0.0025515,-0.129472
0.002552,-0.123028
0.0025525,-0.129472
0.002553,-0.12088
0.0025535,-0.133768
0.002554,-0.12088
0.0025545,-0.129472
0.002555,-0.125176
0.0025555,-0.129472
0.002556,-0.123028
0.0025565,-0.127324
0.002557,-0.125176
0.0025575,-0.129472
0.002558,-0.127324
0.0025585,-0.125176
0.002559,-0.13162
0.0025595,-0.125176
0.00256,-0.129472
0.0025605,-0.12088
0.002561,-0.127324
0.0025615,-0.129472
0.002562,-0.127324
0.0025625,-0.127324
0.002563,-0.127324
0.0025635,-0.133768
0.002564,-0.127324
0.0025645,-0.127324
0.002565,-0.125176
0.0025655,-0.135916
0.002566,-0.125176
0.0025665,-0.133768
0.002567,-0.123028
0.0025675,-0.13162
0.002568,-0.127324
0.0025685,-0.125176
0.002569,-0.125176
0.0025695,-0.13162
0.00257,-0.13162
0.0025705,-0.123028
0.002571,-0.129472
0.0025715,-0.127324
0.002572,-0.133768
0.0025725,-0.12088
0.002573,-0.13162
0.0025735,-0.129472
0.002574,-0.13162
0.0025745,-0.125176
0.002575,-0.125176
0.0025755,-0.129472
0.002576,-0.13162
0.0025765,-0.127324
0.002577,-0.12088
0.0025775,-0.13162
0.002578,-0.129472
0.0025785,-0.129472
0.002579,-0.12088
0.0025795,-0.13162
0.00258,-0.125176
0.0025805,-0.127324
0.002581,-0.123028
0.0025815,-0.129472
0.002582,-0.13162
0.0025825,-0.125176
0.002583,-0.129472
0.0025835,-0.127324
0.002584,-0.133768
0.0025845,-0.12088
0.002585,-0.13162
0.0025855,-0.123028
0.002586,-0.129472
0.0025865,-0.123028
0.002587,-0.127324
0.0025875,-0.127324
0.002588,-0.125176
0.0025885,-0.13162
0.002589,-0.118732
0.0025895,-0.127324
0.00259,-0.123028
0.0025905,-0.13162
0.002591,-0.12088
0.0025915,-0.13162
0.002592,-0.129472
0.0025925,-0.127324
0.002593,-0.12088
0.0025935,-0.125176
0.002594,-0.129472
0.0025945,-0.125176
0.002595,-0.125176
0.0025955,-0.123028
0.002596,-0.13162
0.0025965,-0.118732
0.002597,-0.127324
0.0025975,-0.118732
0.002598,-0.127324
0.0025985,-0.125176
0.002599,-0.127324
0.0025995,-0.123028
0.0026,-0.127324
0.0026005,-0.129472
0.002601,-0.12088
0.0026015,-0.127324
0.002602,-0.127324
0.0026025,-0.13162
0.002603,-0.123028
0.0026035,-0.129472
0.002604,-0.127324
0.0026045,-0.127324
0.002605,-0.127324
0.0026055,-0.127324
0.002606,-0.127324
0.0026065,-0.125176
0.002607,-0.127324
0.0026075,-0.123028
0.002608,-0.127324
0.0026085,-0.12088
0.002609,-0.127324
0.0026095,-0.123028
0.00261,-0.129472
0.0026105,-0.12088
0.002611,-0.129472
0.0026115,-0.123028
0.002612,-0.127324
0.0026125,-0.129472
0.002613,-0.125176
0.0026135,-0.125176
0.002614,-0.127324
0.0026145,-0.129472
0.002615,-0.125176
0.0026155,-0.129472
0.002616,-0.127324
0.0026165,-0.129472
0.002617,-0.125176
0.0026175,-0.127324
0.002618,-0.127324
0.0026185,-0.127324
0.002619,-0.127324
0.0026195,-0.123028
0.00262,-0.129472
0.0026205,-0.123028
0.002621,-0.129472
0.0026215,-0.12088
0.002622,-0.133768
0.0026225,-0.123028
0.002623,-0.125176
0.0026235,-0.125176
0.002624,-0.133768
0.0026245,-0.125176
0.002625,-0.127324
0.0026255,-0.129472
0.002626,-0.127324
0.0026265,-0.129472
0.002627,-0.127324
0.0026275,-0.127324
0.002628,-0.127324
0.0026285,-0.129472
0.002629,-0.125176
0.0026295,-0.129472
0.00263,-0.129472
0.0026305,-0.127324
0.002631,-0.129472
0.0026315,-0.125176
0.002632,-0.133768
0.0026325,-0.123028
0.002633,-0.13162
0.0026335,-0.125176
0.002634,-0.133768
0.0026345,-0.12088
0.002635,-0.13162
0.0026355,-0.118732
0.002636,-0.135916
0.0026365,-0.127324
0.002637,-0.123028
0.0026375,-0.129472
0.002638,-0.127324
0.0026385,-0.129472
0.002639,-0.118732
0.0026395,-0.127324
0.00264,-0.125176
0.0026405,-0.13162
0.002641,-0.123028
0.0026415,-0.125176
0.002642,-0.127324
0.0026425,-0.127324
0.002643,-0.127324
0.0026435,-0.123028
0.002644,-0.135916
0.0026445,-0.123028
0.002645,-0.129472
0.0026455,-0.12088
0.002646,-0.13162
0.0026465,-0.123028
0.002647,-0.129472
0.0026475,-0.123028
0.002648,-0.129472
0.0026485,-0.127324
0.002649,-0.127324
0.0026495,-0.127324
0.00265,-0.129472
0.0026505,-0.13162
0.002651,-0.123028
0.0026515,-0.129472
0.002652,-0.127324
0.0026525,-0.13162
0.002653,-0.123028
0.0026535,-0.127324
0.002654,-0.133768
0.0026545,-0.129472
0.002655,-0.127324
0.0026555,-0.123028
0.002656,-0.127324
0.0026565,-0.125176
0.002657,-0.129472
0.0026575,-0.118732
0.002658,-0.133768
0.0026585,-0.125176
0.002659,-0.13162
0.0026595,-0.123028
0.00266,-0.129472
0.0026605,-0.127324
0.002661,-0.125176
0.0026615,-0.123028
0.002662,-0.13162
0.0026625,-0.129472
0.002663,-0.116583
0.0026635,-0.129472
0.002664,-0.129472
0.0026645,-0.127324
0.002665,-0.118732
0.0026655,-0.127324
0.002666,-0.125176
0.0026665,-0.129472
0.002667,-0.125176
0.0026675,-0.127324
0.002668,-0.127324
0.0026685,-0.129472
0.002669,-0.13162
0.0026695,-0.125176
0.00267,-0.133768
0.0026705,-0.129472
0.002671,-0.133768
0.0026715,-0.123028
0.002672,-0.13162
0.0026725,-0.127324
0.002673,-0.129472
0.0026735,-0.129472
0.002674,-0.13162
0.0026745,-0.13162
0.002675,-0.129472
0.0026755,-0.127324
0.002676,-0.125176
0.0026765,-0.133768
0.002677,-0.125176
0.0026775,-0.129472
0.002678,-0.123028
0.0026785,-0.129472
0.002679,-0.123028
0.0026795,-0.127324
0.00268,-0.127324
0.0026805,-0.129472
0.002681,-0.13162
0.0026815,-0.125176
0.002682,-0.13162
0.0026825,-0.123028
0.002683,-0.13162
0.0026835,-0.127324
0.002684,-0.127324
0.0026845,-0.127324
0.002685,-0.127324
0.0026855,-0.127324
0.002686,-0.125176
0.0026865,-0.129472
0.002687,-0.123028
0.0026875,-0.129472
0.002688,-0.118732
0.0026885,-0.129472
0.002689,-0.12088
0.0026895,-0.129472
0.00269,-0.12088
0.0026905,-0.129472
0.002691,-0.12088
0.0026915,-0.125176
0.002692,-0.125176
0.0026925,-0.125176
0.002693,-0.123028
0.0026935,-0.123028
0.002694,-0.129472
0.0026945,-0.123028
0.002695,-0.129472
0.0026955,-0.125176
0.002696,-0.13162
0.0026965,-0.125176
0.002697,-0.127324
0.0026975,-0.129472
0.002698,-0.127324
0.0026985,-0.127324
0.002699,-0.127324
0.0026995,-0.13162
0.0027,-0.123028
0.0027005,-0.133768
0.002701,-0.125176
0.0027015,-0.13162
0.002702,-0.129472
0.0027025,-0.133768
0.002703,-0.127324
0.0027035,-0.129472
0.002704,-0.127324
0.0027045,-0.13162
0.002705,-0.125176
0.0027055,-0.127324
0.002706,-0.129472
0.0027065,-0.127324
0.002707,-0.129472
0.0027075,-0.125176
0.002708,-0.129472
0.0027085,-0.125176
0.002709,-0.129472
0.0027095,-0.127324
0.00271,-0.127324
0.0027105,-0.129472
0.002711,-0.127324
0.0027115,-0.129472
0.002712,-0.125176
0.0027125,-0.133768
0.002713,-0.123028
0.0027135,-0.129472
0.002714,-0.123028
0.0027145,-0.133768
0.002715,-0.123028
0.0027155,-0.129472
0.002716,-0.123028
0.0027165,-0.129472
0.002717,-0.125176
0.0027175,-0.127324
0.002718,-0.127324
0.0027185,-0.125176
0.002719,-0.129472
0.0027195,-0.125176
0.00272,-0.129472
0.0027205,-0.127324
0.002721,-0.129472
0.0027215,-0.123028
0.002722,-0.127324
0.0027225,-0.13162
0.002723,-0.125176
0.0027235,-0.127324
0.002724,-0.123028
0.0027245,-0.13162
0.002725,-0.123028
0.0027255,-0.127324
0.002726,-0.116583
0.0027265,-0.133768
0.002727,-0.125176
0.0027275,-0.127324
0.002728,-0.12088
0.0027285,-0.129472
0.002729,-0.125176
0.0027295,-0.123028
0.00273,-0.125176
0.0027305,-0.127324
0.002731,-0.13162
0.0027315,-0.12088
0.002732,-0.127324
0.0027325,-0.127324
0.002733,-0.129472
0.0027335,-0.123028
0.002734,-0.127324
0.0027345,-0.129472
0.002735,-0.129472
0.0027355,-0.129472
0.002736,-0.123028
0.0027365,-0.133768
0.002737,-0.127324
0.0027375,-0.13162
0.002738,-0.12088
0.0027385,-0.13162
0.002739,-0.125176
0.0027395,-0.129472
0.00274,-0.12088
0.0027405,-0.129472
0.002741,-0.133768
0.0027415,-0.127324
0.002742,-0.125176
0.0027425,-0.125176
0.002743,-0.133768
0.0027435,-0.12088
0.002744,-0.129472
0.0027445,-0.127324
0.002745,-0.13162
0.0027455,-0.12088
0.002746,-0.127324
0.0027465,-0.127324
0.002747,-0.127324
0.0027475,-0.127324
0.002748,-0.125176
0.0027485,-0.129472
0.002749,-0.125176
0.0027495,-0.129472
0.00275,-0.116583
0.0027505,-0.13162
0.002751,-0.125176
0.0027515,-0.129472
0.002752,-0.123028
0.0027525,-0.127324
0.002753,-0.129472
0.0027535,-0.123028
0.002754,-0.125176
0.0027545,-0.127324
0.002755,-0.133768
0.0027555,-0.123028
0.002756,-0.13162
0.0027565,-0.123028
0.002757,-0.127324
0.0027575,-0.123028
0.002758,-0.127324
0.0027585,-0.125176
0.002759,-0.127324
0.0027595,-0.123028
0.00276,-0.123028
0.0027605,-0.13162
0.002761,-0.123028
0.0027615,-0.127324
0.002762,-0.123028
0.0027625,-0.133768
0.002763,-0.125176
0.0027635,-0.127324
0.002764,-0.125176
0.0027645,-0.129472
0.002765,-0.125176
0.0027655,-0.123028
0.002766,-0.127324
0.0027665,-0.125176
0.002767,-0.129472
0.0027675,-0.125176
0.002768,-0.129472
0.0027685,-0.12088
0.002769,-0.129472
0.0027695,-0.12088
0.00277,-0.127324
0.0027705,-0.125176
0.002771,-0.129472
0.0027715,-0.123028
0.002772,-0.127324
0.0027725,-0.129472
0.002773,-0.129472
0.0027735,-0.127324
0.002774,-0.127324
0.0027745,-0.13162
0.002775,-0.125176
0.0027755,-0.13162
0.002776,-0.125176
0.0027765,-0.13162
0.002777,-0.127324
0.0027775,-0.129472
0.002778,-0.129472
0.0027785,-0.127324
0.002779,-0.13162
0.0027795,-0.127324
0.00278,-0.133768
0.0027805,-0.125176
0.002781,-0.133768
0.0027815,-0.125176
0.002782,-0.133768
0.0027825,-0.127324
0.002783,-0.135916
0.0027835,-0.123028
0.002784,-0.127324
0.0027845,-0.127324
0.002785,-0.127324
0.0027855,-0.127324
0.002786,-0.125176
0.0027865,-0.129472
0.002787,-0.125176
0.0027875,-0.127324
0.002788,-0.123028
0.0027885,-0.127324
0.002789,-0.127324
0.0027895,-0.127324
0.00279,-0.123028
0.0027905,-0.123028
0.002791,-0.129472
0.0027915,-0.123028
0.002792,-0.125176
0.0027925,-0.123028
0.002793,-0.13162
0.0027935,-0.123028
0.002794,-0.127324
0.0027945,-0.12088
0.002795,-0.13162
0.0027955,-0.123028
0.002796,-0.125176
0.0027965,-0.125176
0.002797,-0.129472
0.0027975,-0.127324
0.002798,-0.123028
0.0027985,-0.127324
0.002799,-0.127324
0.0027995,-0.13162
0.0028,-0.123028
0.0028005,-0.129472
0.002801,-0.123028
0.0028015,-0.125176
0.002802,-0.125176
0.0028025,-0.125176
0.002803,-0.133768
0.0028035,-0.123028
0.002804,-0.129472
0.0028045,-0.12088
0.002805,-0.13162
0.0028055,-0.123028
0.002806,-0.129472
0.0028065,-0.118732
0.002807,-0.13162
0.0028075,-0.125176
0.002808,-0.125176
0.0028085,-0.123028
0.002809,-0.129472
0.0028095,-0.127324
0.00281,-0.123028
0.0028105,-0.127324
0.002811,-0.125176
0.0028115,-0.13162
0.002812,-0.12088
0.0028125,-0.129472
0.002813,-0.133768
0.0028135,-0.13162
0.002814,-0.123028
0.0028145,-0.123028
0.002815,-0.133768
0.0028155,-0.125176
0.002816,-0.13162
0.0028165,-0.12088
0.002817,-0.13162
0.0028175,-0.125176
0.002818,-0.13162
0.0028185,-0.12088
0.002819,-0.133768
0.0028195,-0.127324
0.00282,-0.125176
0.0028205,-0.123028
0.002821,-0.127324
0.0028215,-0.129472
0.002822,-0.125176
0.0028225,-0.127324
0.002823,-0.127324
0.0028235,-0.13162
0.002824,-0.123028
0.0028245,-0.129472
0.002825,-0.125176
0.0028255,-0.129472
0.002826,-0.123028
0.0028265,-0.125176
0.002827,-0.125176
0.0028275,-0.123028
0.002828,-0.127324
0.0028285,-0.12088
0.002829,-0.13162
0.0028295,-0.125176
0.00283,-0.13162
0.0028305,-0.12088
0.002831,-0.127324
0.0028315,-0.125176
0.002832,-0.13162
0.0028325,-0.12088
0.002833,-0.127324
0.0028335,-0.127324
0.002834,-0.125176
0.0028345,-0.129472
0.002835,-0.127324
0.0028355,-0.13162
0.002836,-0.123028
0.0028365,-0.129472
0.002837,-0.12088
0.0028375,-0.13162
0.002838,-0.123028
0.0028385,-0.129472
0.002839,-0.125176
0.0028395,-0.127324
0.00284,-0.127324
0.0028405,-0.123028
0.002841,-0.129472
0.0028415,-0.125176
0.002842,-0.127324
0.0028425,-0.12088
0.002843,-0.13162
0.0028435,-0.125176
0.002844,-0.129472
0.0028445,-0.123028
0.002845,-0.127324
0.0028455,-0.129472
0.002846,-0.125176
0.0028465,-0.129472
0.002847,-0.127324
0.0028475,-0.13162
0.002848,-0.123028
0.0028485,-0.129472
0.002849,-0.123028
0.0028495,-0.13162
0.00285,-0.118732
0.0028505,-0.129472
0.002851,-0.125176
0.0028515,-0.127324
0.002852,-0.123028
0.0028525,-0.127324
0.002853,-0.127324
0.0028535,-0.129472
0.002854,-0.129472
0.0028545,-0.125176
0.002855,-0.129472
0.0028555,-0.127324
0.002856,-0.127324
0.0028565,-0.125176
0.002857,-0.127324
0.0028575,-0.127324
0.002858,-0.125176
0.0028585,-0.129472
0.002859,-0.125176
0.0028595,-0.129472
0.00286,-0.123028
0.0028605,-0.129472
0.002861,-0.125176
0.0028615,-0.133768
0.002862,-0.123028
0.0028625,-0.127324
0.002863,-0.125176
0.0028635,-0.13162
0.002864,-0.129472
0.0028645,-0.127324
0.002865,-0.129472
0.0028655,-0.125176
0.002866,-0.127324
0.0028665,-0.125176
0.002867,-0.129472
0.0028675,-0.129472
0.002868,-0.129472
0.0028685,-0.125176
0.002869,-0.125176
0.0028695,-0.13162
0.00287,-0.127324
0.0028705,-0.129472
0.002871,-0.123028
0.0028715,-0.13162
0.002872,-0.127324
0.0028725,-0.13162
0.002873,-0.125176
0.0028735,-0.133768
0.002874,-0.125176
0.0028745,-0.133768
0.002875,-0.127324
0.0028755,-0.133768
0.002876,-0.127324
0.0028765,-0.129472
0.002877,-0.129472
0.0028775,-0.13162
0.002878,-0.133768
0.0028785,-0.127324
0.002879,-0.129472
0.0028795,-0.127324
0.00288,-0.133768
0.0028805,-0.125176
0.002881,-0.129472
0.0028815,-0.129472
0.002882,-0.129472
0.0028825,-0.13162
0.002883,-0.127324
0.0028835,-0.135916
0.002884,-0.127324
0.0028845,-0.13162
0.002885,-0.123028
0.0028855,-0.133768
0.002886,-0.125176
0.0028865,-0.129472
0.002887,-0.123028
0.0028875,-0.13162
0.002888,-0.125176
0.0028885,-0.127324
0.002889,-0.125176
0.0028895,-0.129472
0.00289,-0.129472
0.0028905,-0.12088
0.002891,-0.125176
0.0028915,-0.129472
0.002892,-0.129472
0.0028925,-0.12088
0.002893,-0.127324
0.0028935,-0.127324
0.002894,-0.127324
0.0028945,-0.123028
0.002895,-0.125176
0.0028955,-0.129472
0.002896,-0.123028
0.0028965,-0.127324
0.002897,-0.118732
0.0028975,-0.13162
0.002898,-0.12088
0.0028985,-0.127324
0.002899,-0.118732
0.0028995,-0.129472
0.0029,-0.125176
0.0029005,-0.127324
0.002901,-0.123028
0.0029015,-0.127324
0.002902,-0.127324
0.0029025,-0.123028
0.002903,-0.127324
0.0029035,-0.129472
0.002904,-0.13162
0.0029045,-0.125176
0.002905,-0.127324
0.0029055,-0.127324
0.002906,-0.127324
0.0029065,-0.125176
0.002907,-0.125176
0.0029075,-0.129472
0.002908,-0.125176
0.0029085,-0.129472
0.002909,-0.12088
0.0029095,-0.133768
0.00291,-0.123028
0.0029105,-0.13162
0.002911,-0.12088
0.0029115,-0.13162
0.002912,-0.125176
0.0029125,-0.125176
0.002913,-0.125176
0.0029135,-0.125176
0.002914,-0.129472
0.0029145,-0.123028
0.002915,-0.127324
0.0029155,-0.127324
0.002916,-0.13162
0.0029165,-0.12088
0.002917,-0.13162
0.0029175,-0.13162
0.002918,-0.129472
0.0029185,-0.123028
0.002919,-0.125176
0.0029195,-0.127324
0.00292,-0.125176
0.0029205,-0.129472
0.002921,-0.123028
0.0029215,-0.133768
0.002922,-0.123028
0.0029225,-0.129472
0.002923,-0.12088
0.0029235,-0.13162
0.002924,-0.127324
0.0029245,-0.129472
0.002925,-0.125176
0.0029255,-0.13162
0.002926,-0.133768
0.0029265,-0.127324
0.002927,-0.13162
0.0029275,-0.129472
0.002928,-0.133768
0.0029285,-0.12088
0.002929,-0.129472
0.0029295,-0.123028
0.00293,-0.13162
0.0029305,-0.12088
0.002931,-0.123028
0.0029315,-0.127324
0.002932,-0.127324
0.0029325,-0.127324
0.002933,-0.123028
0.0029335,-0.13162
0.002934,-0.127324
0.0029345,-0.129472
0.002935,-0.125176
0.0029355,-0.129472
0.002936,-0.125176
0.0029365,-0.129472
0.002937,-0.127324
0.0029375,-0.127324
0.002938,-0.127324
0.0029385,-0.123028
0.002939,-0.127324
0.0029395,-0.118732
0.00294,-0.13162
0.0029405,-0.12088
0.002941,-0.129472
0.0029415,-0.123028
0.002942,-0.129472
0.0029425,-0.118732
0.002943,-0.123028
0.0029435,-0.125176
0.002944,-0.123028
0.0029445,-0.12088
0.002945,-0.123028
0.0029455,-0.129472
0.002946,-0.125176
0.0029465,-0.125176
0.002947,-0.127324
0.0029475,-0.129472
0.002948,-0.13162
0.0029485,-0.13162
0.002949,-0.127324
0.0029495,-0.125176
0.00295,-0.127324
0.0029505,-0.125176
0.002951,-0.13162
0.0029515,-0.123028
0.002952,-0.13162
0.0029525,-0.123028
0.002953,-0.129472
0.0029535,-0.127324
0.002954,-0.13162
0.0029545,-0.123028
0.002955,-0.129472
0.0029555,-0.125176
0.002956,-0.13162
0.0029565,-0.125176
0.002957,-0.123028
0.0029575,-0.127324
0.002958,-0.125176
0.0029585,-0.129472
0.002959,-0.127324
0.0029595,-0.127324
0.00296,-0.127324
0.0029605,-0.13162
0.002961,-0.125176
0.0029615,-0.125176
0.002962,-0.127324
0.0029625,-0.127324
0.002963,-0.127324
0.0029635,-0.125176
0.002964,-0.13162
0.0029645,-0.123028
0.002965,-0.127324
0.0029655,-0.123028
0.002966,-0.13162
0.0029665,-0.12088
0.002967,-0.127324
0.0029675,-0.123028
0.002968,-0.13162
0.0029685,-0.125176
0.002969,-0.125176
0.0029695,-0.127324
0.00297,-0.123028
0.0029705,-0.129472
0.002971,-0.12088
0.0029715,-0.129472
0.002972,-0.125176
0.0029725,-0.129472
0.002973,-0.123028
0.0029735,-0.127324
0.002974,-0.129472
0.0029745,-0.125176
0.002975,-0.127324
0.0029755,-0.123028
0.002976,-0.133768
0.0029765,-0.127324
0.002977,-0.13162
0.0029775,-0.123028
0.002978,-0.138065
0.0029785,-0.129472
0.002979,-0.129472
0.0029795,-0.123028
0.00298,-0.13162
0.0029805,-0.129472
0.002981,-0.127324
0.0029815,-0.127324
0.002982,-0.127324
0.0029825,-0.13162
0.002983,-0.127324
0.0029835,-0.13162
0.002984,-0.129472
0.0029845,-0.13162
0.002985,-0.123028
0.0029855,-0.129472
0.002986,-0.129472
0.0029865,-0.127324
0.002987,-0.127324
0.0029875,-0.123028
0.002988,-0.13162
0.0029885,-0.123028
0.002989,-0.129472
0.0029895,-0.12088
0.00299,-0.133768
0.0029905,-0.123028
0.002991,-0.127324
0.0029915,-0.12088
0.002992,-0.129472
0.0029925,-0.127324
0.002993,-0.12088
0.0029935,-0.127324
0.002994,-0.125176
0.0029945,-0.13162
0.002995,-0.123028
0.0029955,-0.13162
0.002996,-0.127324
0.0029965,-0.135916
0.002997,-0.12088
0.0029975,-0.125176
0.002998,-0.129472
0.0029985,-0.127324
0.002999,-0.123028
0.0029995,-0.125176
0.003,-0.127324
0.0030005,-0.125176
0.003001,-0.127324
0.0030015,-0.12088
0.003002,-0.13162
0.0030025,-0.125176
0.003003,-0.127324
0.0030035,-0.123028
0.003004,-0.13162
0.0030045,-0.127324
0.003005,-0.12088
0.0030055,-0.127324
0.003006,-0.127324
0.0030065,-0.129472
0.003007,-0.123028
0.0030075,-0.127324
0.003008,-0.123028
0.0030085,-0.133768
0.003009,-0.123028
0.0030095,-0.129472
0.00301,-0.127324
0.0030105,-0.127324
0.003011,-0.125176
0.0030115,-0.125176
0.003012,-0.13162
0.0030125,-0.127324
0.003013,-0.127324
0.0030135,-0.125176
0.003014,-0.13162
0.0030145,-0.127324
0.003015,-0.129472
0.0030155,-0.125176
0.003016,-0.13162
0.0030165,-0.127324
0.003017,-0.127324
0.0030175,-0.127324
0.003018,-0.127324
0.0030185,-0.129472
0.003019,-0.125176
0.0030195,-0.125176
0.00302,-0.123028
0.0030205,-0.133768
0.003021,-0.123028
0.0030215,-0.129472
0.003022,-0.127324
0.0030225,-0.135916
0.003023,-0.12088
0.0030235,-0.125176
0.003024,-0.129472
0.0030245,-0.125176
0.003025,-0.127324
0.0030255,-0.123028
0.003026,-0.127324
0.0030265,-0.125176
0.003027,-0.127324
0.0030275,-0.123028
0.003028,-0.13162
0.0030285,-0.123028
0.003029,-0.127324
0.0030295,-0.123028
0.00303,-0.123028
0.0030305,-0.127324
0.003031,-0.125176
0.0030315,-0.127324
0.003032,-0.12088
0.0030325,-0.129472
0.003033,-0.12088
0.0030335,-0.129472
0.003034,-0.123028
0.0030345,-0.129472
0.003035,-0.125176
0.0030355,-0.127324
0.003036,-0.127324
0.0030365,-0.127324
0.003037,-0.129472
0.0030375,-0.125176
0.003038,-0.13162
0.0030385,-0.125176
0.003039,-0.129472
0.0030395,-0.125176
0.00304,-0.129472
0.0030405,-0.127324
0.003041,-0.129472
0.0030415,-0.125176
0.003042,-0.127324
0.0030425,-0.133768
0.003043,-0.127324
0.0030435,-0.129472
0.003044,-0.125176
0.0030445,-0.133768
0.003045,-0.123028
0.0030455,-0.127324
0.003046,-0.125176
0.0030465,-0.13162
0.003047,-0.127324
0.0030475,-0.125176
0.003048,-0.125176
0.0030485,-0.125176
0.003049,-0.127324
0.0030495,-0.12088
0.00305,-0.127324
0.0030505,-0.127324
0.003051,-0.129472
0.0030515,-0.12088
0.003052,-0.127324
0.0030525,-0.125176
0.003053,-0.127324
0.0030535,-0.12088
0.003054,-0.125176
0.0030545,-0.129472
0.003055,-0.123028
0.0030555,-0.127324
0.003056,-0.12088
0.0030565,-0.13162
0.003057,-0.125176
0.0030575,-0.129472
0.003058,-0.118732
0.0030585,-0.13162
0.003059,-0.125176
0.0030595,-0.127324
0.00306,-0.123028
0.0030605,-0.129472
0.003061,-0.129472
0.0030615,-0.125176
0.003062,-0.127324
0.0030625,-0.127324
0.003063,-0.125176
0.0030635,-0.12088
0.003064,-0.123028
0.0030645,-0.125176
0.003065,-0.127324
0.0030655,-0.12088
0.003066,-0.125176
0.0030665,-0.127324
0.003067,-0.123028
0.0030675,-0.127324
0.003068,-0.12088
0.0030685,-0.13162
0.003069,-0.123028
0.0030695,-0.127324
0.00307,-0.118732
0.0030705,-0.13162
0.003071,-0.123028
0.0030715,-0.125176
0.003072,-0.123028
0.0030725,-0.129472
0.003073,-0.127324
0.0030735,-0.123028
0.003074,-0.127324
0.0030745,-0.127324
0.003075,-0.127324
0.0030755,-0.123028
0.003076,-0.13162
0.0030765,-0.129472
0.003077,-0.13162
0.0030775,-0.125176
0.003078,-0.127324
0.0030785,-0.129472
0.003079,-0.129472
0.0030795,-0.127324
0.00308,-0.125176
0.0030805,-0.13162
0.003081,-0.125176
0.0030815,-0.127324
0.003082,-0.125176
0.0030825,-0.133768
0.003083,-0.125176
0.0030835,-0.13162
0.003084,-0.129472
0.0030845,-0.133768
0.003085,-0.127324
0.0030855,-0.129472
0.003086,-0.13162
0.0030865,-0.127324
0.003087,-0.13162
0.0030875,-0.125176
0.003088,-0.129472
0.0030885,-0.123028
0.003089,-0.133768
0.0030895,-0.127324
0.00309,-0.127324
0.0030905,-0.129472
0.003091,-0.129472
0.0030915,-0.125176
0.003092,-0.125176
0.0030925,-0.13162
0.003093,-0.127324
0.0030935,-0.13162
0.003094,-0.123028
0.0030945,-0.13162
0.003095,-0.123028
0.0030955,-0.13162
0.003096,-0.125176
0.0030965,-0.13162
0.003097,-0.125176
0.0030975,-0.127324
0.003098,-0.129472
0.0030985,-0.127324
0.003099,-0.129472
0.0030995,-0.129472
0.0031,-0.13162
0.0031005,-0.125176
0.003101,-0.13162
0.0031015,-0.125176
0.003102,-0.127324
0.0031025,-0.127324
0.003103,-0.13162
0.0031035,-0.129472
0.003104,-0.125176
0.0031045,-0.129472
0.003105,-0.125176
0.0031055,-0.129472
0.003106,-0.125176
0.0031065,-0.129472
0.003107,-0.123028
0.0031075,-0.13162
0.003108,-0.123028
0.0031085,-0.129472
0.003109,-0.125176
0.0031095,-0.125176
0.00311,-0.127324
0.0031105,-0.125176
0.003111,-0.13162
0.0031115,-0.123028
0.003112,-0.129472
0.0031125,-0.123028
0.003113,-0.13162
0.0031135,-0.125176
0.003114,-0.129472
0.0031145,-0.125176
0.003115,-0.127324
0.0031155,-0.125176
0.003116,-0.125176
0.0031165,-0.129472
0.003117,-0.125176
0.0031175,-0.129472
0.003118,-0.123028
0.0031185,-0.133768
0.003119,-0.127324
0.0031195,-0.129472
0.00312,-0.12088
0.0031205,-0.127324
0.003121,-0.129472
0.0031215,-0.123028
0.003122,-0.127324
0.0031225,-0.123028
0.003123,-0.135916
0.0031235,-0.127324
0.003124,-0.129472
0.0031245,-0.123028
0.003125,-0.133768
0.0031255,-0.127324
0.003126,-0.13162
0.0031265,-0.123028
0.003127,-0.13162
0.0031275,-0.127324
0.003128,-0.125176
0.0031285,-0.127324
0.003129,-0.127324
0.0031295,-0.13162
0.00313,-0.12088
0.0031305,-0.129472
0.003131,-0.125176
0.0031315,-0.127324
0.003132,-0.12088
0.0031325,-0.127324
0.003133,-0.129472
0.0031335,-0.125176
0.003134,-0.123028
0.0031345,-0.123028
0.003135,-0.13162
0.0031355,-0.12088
0.003136,-0.127324
0.0031365,-0.123028
0.003137,-0.133768
0.0031375,-0.12088
0.003138,-0.127324
0.0031385,-0.12088
0.003139,-0.13162
0.0031395,-0.127324
0.00314,-0.127324
0.0031405,-0.125176
0.003141,-0.129472
0.0031415,-0.129472
0.003142,-0.123028
0.0031425,-0.129472
0.003143,-0.125176
0.0031435,-0.13162
0.003144,-0.125176
0.0031445,-0.129472
0.003145,-0.13162
0.0031455,-0.129472
0.003146,-0.125176
0.0031465,-0.129472
0.003147,-0.133768
0.0031475,-0.127324
0.003148,-0.129472
0.0031485,-0.12088
0.003149,-0.133768
0.0031495,-0.125176
0.00315,-0.13162
0.0031505,-0.12088
0.003151,-0.135916
0.0031515,-0.125176
0.003152,-0.127324
0.0031525,-0.127324
0.003153,-0.13162
0.0031535,-0.13162
0.003154,-0.125176
0.0031545,-0.13162
0.003155,-0.129472
0.0031555,-0.133768
0.003156,-0.125176
0.0031565,-0.13162
0.003157,-0.129472
0.0031575,-0.13162
0.003158,-0.123028
0.0031585,-0.127324
0.003159,-0.13162
0.0031595,-0.127324
0.00316,-0.127324
0.0031605,-0.123028
0.003161,-0.135916
0.0031615,-0.127324
0.003162,-0.129472
0.0031625,-0.123028
0.003163,-0.13162
0.0031635,-0.127324
0.003164,-0.129472
0.0031645,-0.127324
0.003165,-0.129472
0.0031655,-0.13162
0.003166,-0.125176
0.0031665,-0.129472
0.003167,-0.127324
0.0031675,-0.129472
0.003168,-0.125176
0.0031685,-0.13162
0.003169,-0.125176
0.0031695,-0.13162
0.00317,-0.127324
0.0031705,-0.123028
0.003171,-0.127324
0.0031715,-0.125176
0.003172,-0.125176
0.0031725,-0.123028
0.003173,-0.129472
0.0031735,-0.123028
0.003174,-0.129472
0.0031745,-0.123028
0.003175,-0.129472
0.0031755,-0.123028
0.003176,-0.125176
0.0031765,-0.123028
0.003177,-0.13162
0.0031775,-0.129472
0.003178,-0.127324
0.0031785,-0.129472
0.003179,-0.125176
0.0031795,-0.133768
0.00318,-0.123028
0.0031805,-0.129472
0.003181,-0.127324
0.0031815,-0.129472
0.003182,-0.125176
0.0031825,-0.127324
0.003183,-0.127324
0.0031835,-0.129472
0.003184,-0.127324
0.0031845,-0.125176
0.003185,-0.13162
0.0031855,-0.125176
0.003186,-0.129472
0.0031865,-0.125176
0.003187,-0.13162
0.0031875,-0.123028
0.003188,-0.129472
0.0031885,-0.125176
0.003189,-0.129472
0.0031895,-0.125176
0.00319,-0.125176
0.0031905,-0.13162
0.003191,-0.125176
0.0031915,-0.13162
0.003192,-0.127324
0.0031925,-0.129472
0.003193,-0.127324
0.0031935,-0.13162
0.003194,-0.123028
0.0031945,-0.127324
0.003195,-0.127324
0.0031955,-0.127324
0.003196,-0.127324
0.0031965,-0.123028
0.003197,-0.129472
0.0031975,-0.125176
0.003198,-0.133768
0.0031985,-0.125176
0.003199,-0.135916
0.0031995,-0.125176
0.0032,-0.13162
0.0032005,-0.125176
0.003201,-0.129472
0.0032015,-0.129472
0.003202,-0.125176
0.0032025,-0.13162
0.003203,-0.125176
0.0032035,-0.133768
0.003204,-0.123028
0.0032045,-0.13162
0.003205,-0.125176
0.0032055,-0.135916
0.003206,-0.125176
0.0032065,-0.129472
0.003207,-0.127324
0.0032075,-0.13162
0.003208,-0.13162
0.0032085,-0.127324
0.003209,-0.129472
0.0032095,-0.127324
0.00321,-0.127324
0.0032105,-0.123028
0.003211,-0.13162
0.0032115,-0.13162
0.003212,-0.13162
0.0032125,-0.125176
0.003213,-0.127324
0.0032135,-0.13162
0.003214,-0.127324
0.0032145,-0.129472
0.003215,-0.125176
0.0032155,-0.133768
0.003216,-0.123028
0.0032165,-0.127324
0.003217,-0.12088
0.0032175,-0.13162
0.003218,-0.12088
0.0032185,-0.127324
0.003219,-0.123028
0.0032195,-0.127324
0.00322,-0.125176
0.0032205,-0.125176
0.003221,-0.127324
0.0032215,-0.129472
0.003222,-0.129472
0.0032225,-0.127324
0.003223,-0.129472
0.0032235,-0.129472
0.003224,-0.129472
0.0032245,-0.123028
0.003225,-0.127324
0.0032255,-0.127324
0.003226,-0.125176
0.0032265,-0.125176
0.003227,-0.12088
0.0032275,-0.129472
0.003228,-0.123028
0.0032285,-0.127324
0.003229,-0.12088
0.0032295,-0.13162
0.00323,-0.123028
0.0032305,-0.129472
0.003231,-0.125176
0.0032315,-0.133768
0.003232,-0.127324
0.0032325,-0.127324
0.003233,-0.127324
0.0032335,-0.133768
0.003234,-0.13162
0.0032345,-0.127324
0.003235,-0.13162
0.0032355,-0.13162
0.003236,-0.13162
0.0032365,-0.127324
0.003237,-0.13162
0.0032375,-0.129472
0.003238,-0.13162
0.0032385,-0.127324
0.003239,-0.125176
0.0032395,-0.133768
0.00324,-0.127324
0.0032405,-0.129472
0.003241,-0.123028
0.0032415,-0.13162
0.003242,-0.123028
0.0032425,-0.13162
0.003243,-0.125176
0.0032435,-0.133768
0.003244,-0.127324
0.0032445,-0.127324
0.003245,-0.127324
0.0032455,-0.127324
0.003246,-0.129472
0.0032465,-0.125176
0.003247,-0.125176
0.0032475,-0.125176
0.003248,-0.127324
0.0032485,-0.123028
0.003249,-0.125176
0.0032495,-0.125176
0.00325,-0.129472
0.0032505,-0.125176
0.003251,-0.125176
0.0032515,-0.13162
0.003252,-0.127324
0.0032525,-0.127324
0.003253,-0.125176
0.0032535,-0.13162
0.003254,-0.123028
0.0032545,-0.13162
0.003255,-0.125176
0.0032555,-0.133768
0.003256,-0.127324
0.0032565,-0.129472
0.003257,-0.127324
0.0032575,-0.13162
0.003258,-0.129472
0.0032585,-0.127324
0.003259,-0.129472
0.0032595,-0.125176
0.00326,-0.133768
0.0032605,-0.123028
0.003261,-0.129472
0.0032615,-0.125176
0.003262,-0.129472
0.0032625,-0.127324
0.003263,-0.129472
0.0032635,-0.127324
0.003264,-0.125176
0.0032645,-0.127324
0.003265,-0.125176
0.0032655,-0.129472
0.003266,-0.12088
0.0032665,-0.129472
0.003267,-0.123028
0.0032675,-0.129472
0.003268,-0.125176
0.0032685,-0.127324
0.003269,-0.127324
0.0032695,-0.129472
0.00327,-0.127324
0.0032705,-0.123028
0.003271,-0.13162
0.0032715,-0.125176
0.003272,-0.127324
0.0032725,-0.125176
0.003273,-0.129472
0.0032735,-0.127324
0.003274,-0.13162
0.0032745,-0.125176
0.003275,-0.127324
0.0032755,-0.129472
0.003276,-0.127324
0.0032765,-0.125176
0.003277,-0.125176
0.0032775,-0.13162
0.003278,-0.123028
0.0032785,-0.13162
0.003279,-0.125176
0.0032795,-0.133768
0.00328,-0.125176
0.0032805,-0.129472
0.003281,-0.127324
0.0032815,-0.13162
0.003282,-0.129472
0.0032825,-0.125176
0.003283,-0.129472
0.0032835,-0.125176
0.003284,-0.135916
0.0032845,-0.125176
0.003285,-0.129472
0.0032855,-0.129472
0.003286,-0.133768
0.0032865,-0.125176
0.003287,-0.127324
0.0032875,-0.125176
0.003288,-0.129472
0.0032885,-0.127324
0.003289,-0.125176
0.0032895,-0.129472
0.00329,-0.127324
0.0032905,-0.129472
0.003291,-0.125176
0.0032915,-0.129472
0.003292,-0.125176
0.0032925,-0.127324
0.003293,-0.123028
0.0032935,-0.125176
0.003294,-0.13162
0.0032945,-0.125176
0.003295,-0.125176
0.0032955,-0.123028
0.003296,-0.133768
0.0032965,-0.123028
0.003297,-0.13162
0.0032975,-0.12088
0.003298,-0.129472
0.0032985,-0.123028
0.003299,-0.125176
0.0032995,-0.123028
0.0033,-0.13162
0.0033005,-0.129472
0.003301,-0.118732
0.0033015,-0.127324
0.003302,-0.125176
0.0033025,-0.127324
0.003303,-0.12088
0.0033035,-0.127324
0.003304,-0.125176
0.0033045,-0.125176
0.003305,-0.12088
0.0033055,-0.125176
0.003306,-0.127324
0.0033065,-0.123028
0.003307,-0.127324
0.0033075,-0.12088
0.003308,-0.129472
0.0033085,-0.12088
0.003309,-0.127324
0.0033095,-0.118732
0.00331,-0.13162
0.0033105,-0.123028
0.003311,-0.127324
0.0033115,-0.12088
0.003312,-0.129472
0.0033125,-0.125176
0.003313,-0.125176
0.0033135,-0.127324
0.003314,-0.129472
0.0033145,-0.129472
0.003315,-0.125176
0.0033155,-0.129472
0.003316,-0.127324
0.0033165,-0.129472
0.003317,-0.127324
0.0033175,-0.127324
0.003318,-0.129472
0.0033185,-0.127324
0.003319,-0.133768
0.0033195,-0.125176
0.00332,-0.133768
0.0033205,-0.125176
0.003321,-0.13162
0.0033215,-0.125176
0.003322,-0.135916
0.0033225,-0.123028
0.003323,-0.13162
0.0033235,-0.123028
0.003324,-0.127324
0.0033245,-0.125176
0.003325,-0.127324
0.0033255,-0.129472
0.003326,-0.13162
0.0033265,-0.129472
0.003327,-0.125176
0.0033275,-0.13162
0.003328,-0.127324
0.0033285,-0.129472
0.003329,-0.125176
0.0033295,-0.127324
0.00333,-0.123028
0.0033305,-0.127324
0.003331,-0.129472
0.0033315,-0.123028
0.003332,-0.129472
0.0033325,-0.12088
0.003333,-0.127324
0.0033335,-0.125176
0.003334,-0.13162
0.0033345,-0.12088
0.003335,-0.13162
0.0033355,-0.125176
0.003336,-0.13162
0.0033365,-0.125176
0.003337,-0.129472
0.0033375,-0.129472
0.003338,-0.127324
0.0033385,-0.13162
0.003339,-0.127324
0.0033395,-0.129472
0.00334,-0.125176
0.0033405,-0.133768
0.003341,-0.129472
0.0033415,-0.13162
0.003342,-0.127324
0.0033425,-0.127324
0.003343,-0.127324
0.0033435,-0.125176
0.003344,-0.13162
0.0033445,-0.125176
0.003345,-0.129472
0.0033455,-0.125176
0.003346,-0.13162
0.0033465,-0.125176
0.003347,-0.129472
0.0033475,-0.12088
0.003348,-0.13162
0.0033485,-0.123028
0.003349,-0.125176
0.0033495,-0.127324
0.00335,-0.127324
0.0033505,-0.129472
0.003351,-0.123028
0.0033515,-0.129472
0.003352,-0.127324
0.0033525,-0.13162
0.003353,-0.125176
0.0033535,-0.129472
0.003354,-0.129472
0.0033545,-0.129472
0.003355,-0.125176
0.0033555,-0.125176
0.003356,-0.127324
0.0033565,-0.127324
0.003357,-0.129472
0.0033575,-0.123028
0.003358,-0.129472
0.0033585,-0.125176
0.003359,-0.13162
0.0033595,-0.123028
0.00336,-0.133768
0.0033605,-0.129472
0.003361,-0.129472
0.0033615,-0.125176
0.003362,-0.129472
0.0033625,-0.13162
0.003363,-0.125176
0.0033635,-0.13162
0.003364,-0.127324
0.0033645,-0.135916
0.003365,-0.127324
0.0033655,-0.129472
0.003366,-0.127324
0.0033665,-0.133768
0.003367,-0.129472
0.0033675,-0.127324
0.003368,-0.129472
0.0033685,-0.129472
0.003369,-0.13162
0.0033695,-0.125176
0.00337,-0.13162
0.0033705,-0.127324
0.003371,-0.13162
0.0033715,-0.12088
0.003372,-0.129472
0.0033725,-0.127324
0.003373,-0.127324
0.0033735,-0.125176
0.003374,-0.125176
0.0033745,-0.13162
0.003375,-0.123028
0.0033755,-0.13162
0.003376,-0.127324
0.0033765,-0.133768
0.003377,-0.123028
0.0033775,-0.129472
0.003378,-0.12088
0.0033785,-0.13162
0.003379,-0.125176
0.0033795,-0.125176
0.00338,-0.125176
0.0033805,-0.129472
0.003381,-0.127324
0.0033815,-0.116583
0.003382,-0.127324
0.0033825,-0.123028
0.003383,-0.129472
0.0033835,-0.12088
0.003384,-0.125176
0.0033845,-0.125176
0.003385,-0.129472
0.0033855,-0.123028
0.003386,-0.125176
0.0033865,-0.13162
0.003387,-0.125176
0.0033875,-0.13162
0.003388,-0.12088
0.0033885,-0.133768
0.003389,-0.123028
0.0033895,-0.13162
0.00339,-0.116583
0.0033905,-0.129472
0.003391,-0.127324
0.0033915,-0.127324
0.003392,-0.127324
0.0033925,-0.129472
0.003393,-0.13162
0.0033935,-0.123028
0.003394,-0.127324
0.0033945,-0.127324
0.003395,-0.127324
0.0033955,-0.123028
0.003396,-0.13162
0.0033965,-0.127324
0.003397,-0.127324
0.0033975,-0.123028
0.003398,-0.123028
0.0033985,-0.127324
0.003399,-0.125176
0.0033995,-0.127324
0.0034,-0.12088
0.0034005,-0.129472
0.003401,-0.123028
0.0034015,-0.129472
0.003402,-0.123028
0.0034025,-0.13162
0.003403,-0.125176
0.0034035,-0.123028
0.003404,-0.125176
0.0034045,-0.129472
0.003405,-0.123028
0.0034055,-0.125176
0.003406,-0.129472
0.0034065,-0.129472
0.003407,-0.127324
0.0034075,-0.123028
0.003408,-0.127324
0.0034085,-0.127324
0.003409,-0.127324
0.0034095,-0.125176
0.00341,-0.127324
0.0034105,-0.129472
0.003411,-0.127324
0.0034115,-0.129472
0.003412,-0.123028
0.0034125,-0.133768
0.003413,-0.12088
0.0034135,-0.13162
0.003414,-0.123028
0.0034145,-0.133768
0.003415,-0.118732
0.0034155,-0.13162
0.003416,-0.123028
0.0034165,-0.129472
0.003417,-0.127324
0.0034175,-0.125176
0.003418,-0.127324
0.0034185,-0.127324
0.003419,-0.13162
0.0034195,-0.125176
0.00342,-0.129472
0.0034205,-0.127324
0.003421,-0.13162
0.0034215,-0.125176
0.003422,-0.13162
0.0034225,-0.127324
0.003423,-0.129472
0.0034235,-0.127324
0.003424,-0.123028
0.0034245,-0.133768
0.003425,-0.123028
0.0034255,-0.129472
0.003426,-0.127324
0.0034265,-0.133768
0.003427,-0.125176
0.0034275,-0.129472
0.003428,-0.125176
0.0034285,-0.13162
0.003429,-0.129472
0.0034295,-0.125176
0.00343,-0.13162
0.0034305,-0.127324
0.003431,-0.129472
0.0034315,-0.125176
0.003432,-0.133768
0.0034325,-0.127324
0.003433,-0.129472
0.0034335,-0.125176
0.003434,-0.129472
0.0034345,-0.129472
0.003435,-0.129472
0.0034355,-0.125176
0.003436,-0.127324
0.0034365,-0.133768
0.003437,-0.125176
0.0034375,-0.127324
0.003438,-0.123028
0.0034385,-0.13162
0.003439,-0.125176
0.0034395,-0.129472
0.00344,-0.125176
0.0034405,-0.129472
0.003441,-0.129472
0.0034415,-0.125176
0.003442,-0.129472
0.0034425,-0.127324
0.003443,-0.133768
0.0034435,-0.127324
0.003444,-0.129472
0.0034445,-0.127324
0.003445,-0.135916
0.0034455,-0.123028
0.003446,-0.129472
0.0034465,-0.127324
0.003447,-0.13162
0.0034475,-0.125176
0.003448,-0.125176
0.0034485,-0.129472
0.003449,-0.125176
0.0034495,-0.127324
0.00345,-0.12088
0.0034505,-0.129472
0.003451,-0.125176
0.0034515,-0.133768
0.003452,-0.12088
0.0034525,-0.127324
0.003453,-0.127324
0.0034535,-0.125176
0.003454,-0.125176
0.0034545,-0.125176
0.003455,-0.133768
0.0034555,-0.12088
0.003456,-0.125176
0.0034565,-0.12088
0.003457,-0.13162
0.0034575,-0.123028
0.003458,-0.125176
0.0034585,-0.118732
0.003459,-0.127324
0.0034595,-0.125176
0.00346,-0.123028
0.0034605,-0.127324
0.003461,-0.125176
0.0034615,-0.127324
0.003462,-0.12088
0.0034625,-0.125176
0.003463,-0.125176
0.0034635,-0.13162
0.003464,-0.12088
0.0034645,-0.127324
0.003465,-0.127324
0.0034655,-0.127324
0.003466,-0.127324
0.0034665,-0.127324
0.003467,-0.133768
0.0034675,-0.123028
0.003468,-0.129472
0.0034685,-0.123028
0.003469,-0.135916
0.0034695,-0.127324
0.00347,-0.129472
0.0034705,-0.127324
0.003471,-0.133768
0.0034715,-0.127324
0.003472,-0.127324
0.0034725,-0.125176
0.003473,-0.133768
0.0034735,-0.133768
0.003474,-0.123028
0.0034745,-0.13162
0.003475,-0.129472
0.0034755,-0.13162
0.003476,-0.123028
0.0034765,-0.129472
0.003477,-0.133768
0.0034775,-0.129472
0.003478,-0.125176
0.0034785,-0.125176
0.003479,-0.133768
0.0034795,-0.125176
0.00348,-0.125176
0.0034805,-0.12088
0.003481,-0.133768
0.0034815,-0.125176
0.003482,-0.129472
0.0034825,-0.118732
0.003483,-0.13162
0.0034835,-0.127324
0.003484,-0.129472
0.0034845,-0.118732
0.003485,-0.13162
0.0034855,-0.129472
0.003486,-0.123028
0.0034865,-0.129472
0.003487,-0.13162
0.0034875,-0.13162
0.003488,-0.123028
0.0034885,-0.129472
0.003489,-0.13162
0.0034895,-0.127324
0.00349,-0.125176
0.0034905,-0.125176
0.003491,-0.133768
0.0034915,-0.123028
0.003492,-0.129472
0.0034925,-0.123028
0.003493,-0.135916
0.0034935,-0.12088
0.003494,-0.129472
0.0034945,-0.123028
0.003495,-0.133768
0.0034955,-0.127324
0.003496,-0.127324
0.0034965,-0.125176
0.003497,-0.127324
0.0034975,-0.127324
0.003498,-0.125176
0.0034985,-0.129472
0.003499,-0.129472
0.0034995,-0.127324
0.0035,-0.123028
0.0035005,-0.129472
0.003501,-0.127324
0.0035015,-0.127324
0.003502,-0.123028
0.0035025,-0.127324
0.003503,-0.13162
0.0035035,-0.123028
0.003504,-0.125176
0.0035045,-0.123028
0.003505,-0.133768
0.0035055,-0.12088
0.003506,-0.13162
0.0035065,-0.12088
0.003507,-0.133768
0.0035075,-0.125176
0.003508,-0.127324
0.0035085,-0.125176
0.003509,-0.13162
0.0035095,-0.13162
0.00351,-0.125176
0.0035105,-0.127324
0.003511,-0.129472
0.0035115,-0.13162
0.003512,-0.127324
0.0035125,-0.133768
0.003513,-0.127324
0.0035135,-0.13162
0.003514,-0.129472
0.0035145,-0.123028
0.003515,-0.13162
0.0035155,-0.127324
0.003516,-0.129472
0.0035165,-0.125176
0.003517,-0.13162
0.0035175,-0.12088
0.003518,-0.13162
0.0035185,-0.123028
0.003519,-0.13162
0.0035195,-0.125176
0.00352,-0.129472
0.0035205,-0.123028
0.003521,-0.129472
0.0035215,-0.127324
0.003522,-0.129472
0.0035225,-0.129472
0.003523,-0.125176
0.0035235,-0.13162
0.003524,-0.129472
0.0035245,-0.129472
0.003525,-0.127324
0.0035255,-0.129472
0.003526,-0.125176
0.0035265,-0.129472
0.003527,-0.129472
0.0035275,-0.127324
0.003528,-0.127324
0.0035285,-0.123028
0.003529,-0.129472
0.0035295,-0.125176
0.00353,-0.127324
0.0035305,-0.123028
0.003531,-0.13162
0.0035315,-0.127324
0.003532,-0.127324
0.0035325,-0.123028
0.003533,-0.127324
0.0035335,-0.125176
0.003534,-0.125176
0.0035345,-0.127324
0.003535,-0.127324
0.0035355,-0.129472
0.003536,-0.123028
0.0035365,-0.129472
0.003537,-0.123028
0.0035375,-0.129472
0.003538,-0.123028
0.0035385,-0.123028
0.003539,-0.12088
0.0035395,-0.125176
0.00354,-0.125176
0.0035405,-0.118732
0.003541,-0.127324
0.0035415,-0.125176
0.003542,-0.127324
0.0035425,-0.118732
0.003543,-0.129472
0.0035435,-0.125176
0.003544,-0.125176
0.0035445,-0.12088
0.003545,-0.127324
0.0035455,-0.13162
0.003546,-0.123028
0.0035465,-0.127324
0.003547,-0.125176
0.0035475,-0.13162
0.003548,-0.123028
0.0035485,-0.13162
0.003549,-0.123028
0.0035495,-0.133768
0.00355,-0.125176
0.0035505,-0.129472
0.003551,-0.123028
0.0035515,-0.13162
0.003552,-0.13162
0.0035525,-0.127324
0.003553,-0.129472
0.0035535,-0.129472
0.003554,-0.133768
0.0035545,-0.12088
0.003555,-0.129472
0.0035555,-0.125176
0.003556,-0.129472
0.0035565,-0.127324
0.003557,-0.125176
0.0035575,-0.127324
0.003558,-0.125176
0.0035585,-0.127324
0.003559,-0.125176
0.0035595,-0.13162
0.00356,-0.12088
0.0035605,-0.129472
0.003561,-0.123028
0.0035615,-0.133768
0.003562,-0.12088
0.0035625,-0.125176
0.003563,-0.12088
0.0035635,-0.13162
0.003564,-0.125176
0.0035645,-0.125176
0.003565,-0.125176
0.0035655,-0.127324
0.003566,-0.13162
0.0035665,-0.125176
0.003567,-0.127324
0.0035675,-0.127324
0.003568,-0.133768
0.0035685,-0.123028
0.003569,-0.127324
0.0035695,-0.13162
0.00357,-0.127324
0.0035705,-0.127324
0.003571,-0.125176
0.0035715,-0.129472
0.003572,-0.125176
0.0035725,-0.13162
0.003573,-0.125176
0.0035735,-0.133768
0.003574,-0.123028
0.0035745,-0.129472
0.003575,-0.125176
0.0035755,-0.13162
0.003576,-0.125176
0.0035765,-0.127324
0.003577,-0.129472
0.0035775,-0.13162
0.003578,-0.13162
0.0035785,-0.125176
0.003579,-0.129472
0.0035795,-0.127324
0.00358,-0.13162
0.0035805,-0.123028
0.003581,-0.127324
0.0035815,-0.123028
0.003582,-0.127324
0.0035825,-0.125176
0.003583,-0.125176
0.0035835,-0.127324
0.003584,-0.123028
0.0035845,-0.127324
0.003585,-0.118732
0.0035855,-0.13162
0.003586,-0.12088
0.0035865,-0.13162
0.003587,-0.123028
0.0035875,-0.133768
0.003588,-0.125176
0.0035885,-0.127324
0.003589,-0.125176
0.0035895,-0.129472
0.00359,-0.129472
0.0035905,-0.125176
0.003591,-0.129472
0.0035915,-0.127324
0.003592,-0.133768
0.0035925,-0.127324
0.003593,-0.129472
0.0035935,-0.129472
0.003594,-0.133768
0.0035945,-0.127324
0.003595,-0.125176
0.0035955,-0.133768
0.003596,-0.125176
0.0035965,-0.129472
0.003597,-0.125176
0.0035975,-0.13162
0.003598,-0.129472
0.0035985,-0.13162
0.003599,-0.127324
0.0035995,-0.135916
0.0036,-0.127324
0.0036005,-0.129472
0.003601,-0.125176
0.0036015,-0.127324
0.003602,-0.127324
0.0036025,-0.125176
0.003603,-0.129472
0.0036035,-0.125176
0.003604,-0.133768
0.0036045,-0.125176
0.003605,-0.127324
0.0036055,-0.127324
0.003606,-0.129472
0.0036065,-0.125176
0.003607,-0.127324
0.0036075,-0.127324
0.003608,-0.125176
0.0036085,-0.129472
0.003609,-0.123028
0.0036095,-0.129472
0.00361,-0.123028
0.0036105,-0.13162
0.003611,-0.123028
0.0036115,-0.127324
0.003612,-0.125176
0.0036125,-0.127324
0.003613,-0.125176
0.0036135,-0.125176
0.003614,-0.127324
0.0036145,-0.123028
0.003615,-0.133768
0.0036155,-0.123028
0.003616,-0.129472
0.0036165,-0.123028
0.003617,-0.125176
0.0036175,-0.125176
0.003618,-0.129472
0.0036185,-0.125176
0.003619,-0.127324
0.0036195,-0.127324
0.00362,-0.127324
0.0036205,-0.125176
0.003621,-0.118732
0.0036215,-0.129472
0.003622,-0.123028
0.0036225,-0.127324
0.003623,-0.118732
0.0036235,-0.13162
0.003624,-0.129472
0.0036245,-0.133768
0.003625,-0.123028
0.0036255,-0.127324
0.003626,-0.13162
0.0036265,-0.125176
0.003627,-0.13162
0.0036275,-0.125176
0.003628,-0.133768
0.0036285,-0.123028
0.003629,-0.129472
0.0036295,-0.123028
0.00363,-0.129472
0.0036305,-0.127324
0.003631,-0.127324
0.0036315,-0.127324
0.003632,-0.129472
0.0036325,-0.129472
0.003633,-0.125176
0.0036335,-0.129472
0.003634,-0.127324
0.0036345,-0.13162
0.003635,-0.125176
0.0036355,-0.13162
0.003636,-0.127324
0.0036365,-0.129472
0.003637,-0.125176
0.0036375,-0.125176
0.003638,-0.13162
0.0036385,-0.12088
0.003639,-0.13162
0.0036395,-0.125176
0.00364,-0.135916
0.0036405,-0.123028
0.003641,-0.133768
0.0036415,-0.123028
0.003642,-0.133768
0.0036425,-0.123028
0.003643,-0.127324
0.0036435,-0.12088
0.003644,-0.129472
0.0036445,-0.127324
0.003645,-0.123028
0.0036455,-0.127324
0.003646,-0.129472
0.0036465,-0.135916
0.003647,-0.123028
0.0036475,-0.129472
0.003648,-0.127324
0.0036485,-0.127324
0.003649,-0.125176
0.0036495,-0.127324
0.00365,-0.129472
0.0036505,-0.129472
0.003651,-0.127324
0.0036515,-0.123028
0.003652,-0.133768
0.0036525,-0.125176
0.003653,-0.129472
0.0036535,-0.12088
0.003654,-0.133768
0.0036545,-0.123028
0.003655,-0.127324
0.0036555,-0.123028
0.003656,-0.13162
0.0036565,-0.129472
0.003657,-0.123028
0.0036575,-0.129472
0.003658,-0.125176
0.0036585,-0.13162
0.003659,-0.125176
0.0036595,-0.129472
0.00366,-0.129472
0.0036605,-0.129472
0.003661,-0.125176
0.0036615,-0.127324
0.003662,-0.13162
0.0036625,-0.129472
0.003663,-0.127324
0.0036635,-0.125176
0.003664,-0.135916
0.0036645,-0.125176
0.003665,-0.13162
0.0036655,-0.123028
0.003666,-0.133768
0.0036665,-0.127324
0.003667,-0.133768
0.0036675,-0.125176
0.003668,-0.13162
0.0036685,-0.129472
0.003669,-0.129472
0.0036695,-0.129472
0.00367,-0.127324
0.0036705,-0.13162
0.003671,-0.125176
0.0036715,-0.129472
0.003672,-0.127324
0.0036725,-0.13162
0.003673,-0.123028
0.0036735,-0.127324
0.003674,-0.127324
0.0036745,-0.129472
0.003675,-0.125176
0.0036755,-0.123028
0.003676,-0.133768
0.0036765,-0.125176
0.003677,-0.129472
0.0036775,-0.123028
0.003678,-0.129472
0.0036785,-0.127324
0.003679,-0.129472
0.0036795,-0.125176
0.00368,-0.133768
0.0036805,-0.127324
0.003681,-0.123028
0.0036815,-0.129472
0.003682,-0.127324
0.0036825,-0.129472
0.003683,-0.127324
0.0036835,-0.13162
0.003684,-0.125176
0.0036845,-0.13162
0.003685,-0.127324
0.0036855,-0.127324
0.003686,-0.129472
0.0036865,-0.13162
0.003687,-0.125176
0.0036875,-0.127324
0.003688,-0.135916
0.0036885,-0.129472
0.003689,-0.127324
0.0036895,-0.125176
0.00369,-0.13162
0.0036905,-0.125176
0.003691,-0.133768
0.0036915,-0.125176
0.003692,-0.13162
0.0036925,-0.123028
0.003693,-0.127324
0.0036935,-0.127324
0.003694,-0.127324
0.0036945,-0.129472
0.003695,-0.125176
0.0036955,-0.127324
0.003696,-0.125176
0.0036965,-0.129472
0.003697,-0.125176
0.0036975,-0.129472
0.003698,-0.125176
0.0036985,-0.127324
0.003699,-0.125176
0.0036995,-0.127324
0.0037,-0.129472
0.0037005,-0.127324
0.003701,-0.127324
0.0037015,-0.125176
0.003702,-0.127324
0.0037025,-0.125176
0.003703,-0.125176
0.0037035,-0.123028
0.003704,-0.127324
0.0037045,-0.12088
0.003705,-0.127324
0.0037055,-0.125176
0.003706,-0.125176
0.0037065,-0.13162
0.003707,-0.125176
0.0037075,-0.125176
0.003708,-0.125176
0.0037085,-0.13162
0.003709,-0.125176
0.0037095,-0.13162
0.00371,-0.125176
0.0037105,-0.13162
0.003711,-0.125176
0.0037115,-0.127324
0.003712,-0.127324
0.0037125,-0.125176
0.003713,-0.129472
0.0037135,-0.125176
0.003714,-0.13162
0.0037145,-0.123028
0.003715,-0.13162
0.0037155,-0.12088
0.003716,-0.129472
0.0037165,-0.127324
0.003717,-0.129472
0.0037175,-0.127324
0.003718,-0.125176
0.0037185,-0.13162
0.003719,-0.12088
0.0037195,-0.13162
0.00372,-0.123028
0.0037205,-0.133768
0.003721,-0.12088
0.0037215,-0.129472
0.003722,-0.12088
0.0037225,-0.13162
0.003723,-0.125176
0.0037235,-0.127324
0.003724,-0.127324
0.0037245,-0.127324
0.003725,-0.13162
0.0037255,-0.123028
0.003726,-0.129472
0.0037265,-0.127324
0.003727,-0.129472
0.0037275,-0.123028
0.003728,-0.129472
0.0037285,-0.129472
0.003729,-0.127324
0.0037295,-0.125176
0.00373,-0.12088
0.0037305,-0.133768
0.003731,-0.123028
0.0037315,-0.129472
0.003732,-0.12088
0.0037325,-0.135916
0.003733,-0.12088
0.0037335,-0.129472
0.003734,-0.123028
0.0037345,-0.129472
0.003735,-0.125176
0.0037355,-0.127324
0.003736,-0.125176
0.0037365,-0.127324
0.003737,-0.13162
0.0037375,-0.12088
0.003738,-0.123028
0.0037385,-0.129472
0.003739,-0.13162
0.0037395,-0.123028
0.00374,-0.127324
0.0037405,-0.129472
0.003741,-0.127324
0.0037415,-0.125176
0.003742,-0.125176
0.0037425,-0.129472
0.003743,-0.127324
0.0037435,-0.127324
0.003744,-0.12088
0.0037445,-0.133768
0.003745,-0.123028
0.0037455,-0.129472
0.003746,-0.123028
0.0037465,-0.129472
0.003747,-0.123028
0.0037475,-0.127324
0.003748,-0.123028
0.0037485,-0.127324
0.003749,-0.127324
0.0037495,-0.123028
0.00375,-0.127324
0.0037505,-0.129472
0.003751,-0.127324
0.0037515,-0.123028
0.003752,-0.127324
0.0037525,-0.123028
0.003753,-0.129472
0.0037535,-0.12088
0.003754,-0.127324
0.0037545,-0.129472
0.003755,-0.125176
0.0037555,-0.125176
0.003756,-0.125176
0.0037565,-0.13162
0.003757,-0.12088
0.0037575,-0.129472
0.003758,-0.123028
0.0037585,-0.13162
0.003759,-0.125176
0.0037595,-0.127324
0.00376,-0.125176
0.0037605,-0.129472
0.003761,-0.123028
0.0037615,-0.125176
0.003762,-0.129472
0.0037625,-0.129472
0.003763,-0.129472
0.0037635,-0.125176
0.003764,-0.129472
0.0037645,-0.127324
0.003765,-0.13162
0.0037655,-0.118732
0.003766,-0.125176
0.0037665,-0.133768
0.003767,-0.127324
0.0037675,-0.127324
0.003768,-0.125176
0.0037685,-0.133768
0.003769,-0.125176
0.0037695,-0.129472
0.00377,-0.123028
0.0037705,-0.133768
0.003771,-0.123028
0.0037715,-0.125176
0.003772,-0.125176
0.0037725,-0.13162
0.003773,-0.127324
0.0037735,-0.125176
0.003774,-0.127324
0.0037745,-0.127324
0.003775,-0.13162
0.0037755,-0.125176
0.003776,-0.127324
0.0037765,-0.127324
0.003777,-0.129472
0.0037775,-0.123028
0.003778,-0.127324
0.0037785,-0.127324
0.003779,-0.127324
0.0037795,-0.129472
0.00378,-0.123028
0.0037805,-0.13162
0.003781,-0.127324
0.0037815,-0.129472
0.003782,-0.118732
0.0037825,-0.133768
0.003783,-0.127324
0.0037835,-0.129472
0.003784,-0.125176
0.0037845,-0.13162
0.003785,-0.129472
0.0037855,-0.125176
0.003786,-0.125176
0.0037865,-0.123028
0.003787,-0.13162
0.0037875,-0.118732
0.003788,-0.127324
0.0037885,-0.123028
0.003789,-0.129472
0.0037895,-0.12088
0.00379,-0.127324
0.0037905,-0.129472
0.003791,-0.125176
0.0037915,-0.125176
0.003792,-0.123028
0.0037925,-0.123028
0.003793,-0.125176
0.0037935,-0.13162
0.003794,-0.12088
0.0037945,-0.127324
0.003795,-0.125176
0.0037955,-0.123028
0.003796,-0.123028
0.0037965,-0.127324
0.003797,-0.129472
0.0037975,-0.125176
0.003798,-0.127324
0.0037985,-0.125176
0.003799,-0.13162
0.0037995,-0.123028
0.0038,-0.129472
0.0038005,-0.123028
0.003801,-0.13162
0.0038015,-0.12088
0.003802,-0.127324
0.0038025,-0.123028
0.003803,-0.129472
0.0038035,-0.127324
0.003804,-0.125176
0.0038045,-0.129472
0.003805,-0.127324
0.0038055,-0.13162
0.003806,-0.123028
0.0038065,-0.129472
0.003807,-0.127324
0.0038075,-0.127324
0.003808,-0.125176
0.0038085,-0.129472
0.003809,-0.13162
0.0038095,-0.129472
0.00381,-0.13162
0.0038105,-0.125176
0.003811,-0.133768
0.0038115,-0.123028
0.003812,-0.129472
0.0038125,-0.12088
0.003813,-0.13162
0.0038135,-0.12088
0.003814,-0.13162
0.0038145,-0.125176
0.003815,-0.129472
0.0038155,-0.125176
0.003816,-0.127324
0.0038165,-0.129472
0.003817,-0.129472
0.0038175,-0.129472
0.003818,-0.127324
0.0038185,-0.13162
0.003819,-0.129472
0.0038195,-0.133768
0.00382,-0.127324
0.0038205,-0.129472
0.003821,-0.129472
0.0038215,-0.133768
0.003822,-0.127324
0.0038225,-0.127324
0.003823,-0.133768
0.0038235,-0.125176
0.003824,-0.13162
0.0038245,-0.125176
0.003825,-0.135916
0.0038255,-0.125176
0.003826,-0.133768
0.0038265,-0.125176
0.003827,-0.133768
0.0038275,-0.127324
0.003828,-0.129472
0.0038285,-0.129472
0.003829,-0.129472
0.0038295,-0.129472
0.00383,-0.127324
0.0038305,-0.127324
0.003831,-0.127324
0.0038315,-0.13162
0.003832,-0.127324
0.0038325,-0.127324
0.003833,-0.127324
0.0038335,-0.127324
0.003834,-0.129472
0.0038345,-0.125176
0.003835,-0.13162
0.0038355,-0.129472
0.003836,-0.129472
0.0038365,-0.123028
0.003837,-0.135916
0.0038375,-0.123028
0.003838,-0.13162
0.0038385,-0.125176
0.003839,-0.129472
0.0038395,-0.123028
0.00384,-0.127324
0.0038405,-0.125176
0.003841,-0.129472
0.0038415,-0.129472
0.003842,-0.125176
0.0038425,-0.129472
0.003843,-0.125176
0.0038435,-0.129472
0.003844,-0.127324
0.0038445,-0.13162
0.003845,-0.127324
0.0038455,-0.129472
0.003846,-0.127324
0.0038465,-0.125176
0.003847,-0.129472
0.0038475,-0.127324
0.003848,-0.129472
0.0038485,-0.125176
0.003849,-0.133768
0.0038495,-0.123028
0.00385,-0.13162
0.0038505,-0.125176
0.003851,-0.135916
0.0038515,-0.125176
0.003852,-0.129472
0.0038525,-0.125176
0.003853,-0.127324
0.0038535,-0.127324
0.003854,-0.127324
0.0038545,-0.127324
0.003855,-0.127324
0.0038555,-0.13162
0.003856,-0.125176
0.0038565,-0.129472
0.003857,-0.129472
0.0038575,-0.133768
0.003858,-0.127324
0.0038585,-0.127324
0.003859,-0.133768
0.0038595,-0.129472
0.00386,-0.129472
0.0038605,-0.125176
0.003861,-0.138065
0.0038615,-0.127324
0.003862,-0.129472
0.0038625,-0.123028
0.003863,-0.129472
0.0038635,-0.125176
0.003864,-0.127324
0.0038645,-0.127324
0.003865,-0.127324
0.0038655,-0.129472
0.003866,-0.125176
0.0038665,-0.127324
0.003867,-0.129472
0.0038675,-0.135916
0.003868,-0.12088
0.0038685,-0.127324
0.003869,-0.125176
0.0038695,-0.13162
0.00387,-0.127324
0.0038705,-0.129472
0.003871,-0.129472
0.0038715,-0.129472
0.003872,-0.127324
0.0038725,-0.123028
0.003873,-0.129472
0.0038735,-0.125176
0.003874,-0.129472
0.0038745,-0.12088
0.003875,-0.129472
0.0038755,-0.125176
0.003876,-0.127324
0.0038765,-0.12088
0.003877,-0.127324
0.0038775,-0.129472
0.003878,-0.127324
0.0038785,-0.127324
0.003879,-0.125176
0.0038795,-0.13162
0.00388,-0.123028
0.0038805,-0.129472
0.003881,-0.123028
0.0038815,-0.133768
0.003882,-0.125176
0.0038825,-0.129472
0.003883,-0.125176
0.0038835,-0.129472
0.003884,-0.129472
0.0038845,-0.123028
0.003885,-0.127324
0.0038855,-0.127324
0.003886,-0.129472
0.0038865,-0.12088
0.003887,-0.127324
0.0038875,-0.123028
0.003888,-0.127324
0.0038885,-0.123028
0.003889,-0.125176
0.0038895,-0.129472
0.00389,-0.125176
0.0038905,-0.125176
0.003891,-0.123028
0.0038915,-0.13162
0.003892,-0.118732
0.0038925,-0.127324
0.003893,-0.118732
0.0038935,-0.13162
0.003894,-0.12088
0.0038945,-0.127324
0.003895,-0.123028
0.0038955,-0.127324
0.003896,-0.123028
0.0038965,-0.125176
0.003897,-0.129472
0.0038975,-0.127324
0.003898,-0.129472
0.0038985,-0.12088
0.003899,-0.129472
0.0038995,-0.127324
0.0039,-0.129472
0.0039005,-0.125176
0.003901,-0.125176
0.0039015,-0.129472
0.003902,-0.125176
0.0039025,-0.127324
0.003903,-0.123028
0.0039035,-0.13162
0.003904,-0.123028
0.0039045,-0.127324
0.003905,-0.12088
0.0039055,-0.133768
0.003906,-0.12088
0.0039065,-0.129472
0.003907,-0.123028
0.0039075,-0.129472
0.003908,-0.129472
0.0039085,-0.127324
0.003909,-0.133768
0.0039095,-0.129472
0.00391,-0.13162
0.0039105,-0.123028
0.003911,-0.13162
0.0039115,-0.129472
0.003912,-0.129472
0.0039125,-0.127324
0.003913,-0.129472
0.0039135,-0.129472
0.003914,-0.127324
0.0039145,-0.127324
0.003915,-0.125176
0.0039155,-0.13162
0.003916,-0.123028
0.0039165,-0.129472
0.003917,-0.125176
0.0039175,-0.133768
0.003918,-0.12088
0.0039185,-0.129472
0.003919,-0.129472
0.0039195,-0.135916
0.00392,-0.123028
0.0039205,-0.127324
0.003921,-0.129472
0.0039215,-0.129472
0.003922,-0.13162
0.0039225,-0.127324
0.003923,-0.13162
0.0039235,-0.129472
0.003924,-0.133768
0.0039245,-0.127324
0.003925,-0.135916
0.0039255,-0.129472
0.003926,-0.13162
0.0039265,-0.129472
0.003927,-0.129472
0.0039275,-0.133768
0.003928,-0.127324
0.0039285,-0.129472
0.003929,-0.129472
0.0039295,-0.135916
0.00393,-0.12088
0.0039305,-0.13162
0.003931,-0.125176
0.0039315,-0.133768
0.003932,-0.123028
0.0039325,-0.125176
0.003933,-0.127324
0.0039335,-0.127324
0.003934,-0.129472
0.0039345,-0.123028
0.003935,-0.127324
0.0039355,-0.127324
0.003936,-0.13162
0.0039365,-0.123028
0.003937,-0.129472
0.0039375,-0.125176
0.003938,-0.125176
0.0039385,-0.125176
0.003939,-0.127324
0.0039395,-0.138065
0.00394,-0.123028
0.0039405,-0.127324
0.003941,-0.12088
0.0039415,-0.133768
0.003942,-0.12088
0.0039425,-0.127324
0.003943,-0.125176
0.0039435,-0.13162
0.003944,-0.123028
0.0039445,-0.123028
0.003945,-0.127324
0.0039455,-0.125176
0.003946,-0.127324
0.0039465,-0.123028
0.003947,-0.129472
0.0039475,-0.125176
0.003948,-0.13162
0.0039485,-0.125176
0.003949,-0.127324
0.0039495,-0.127324
0.00395,-0.13162
0.0039505,-0.129472
0.003951,-0.127324
0.0039515,-0.129472
0.003952,-0.129472
0.0039525,-0.129472
0.003953,-0.123028
0.0039535,-0.13162
0.003954,-0.125176
0.0039545,-0.127324
0.003955,-0.123028
0.0039555,-0.129472
0.003956,-0.127324
0.0039565,-0.127324
0.003957,-0.123028
0.0039575,-0.129472
0.003958,-0.127324
0.0039585,-0.12088
0.003959,-0.125176
0.0039595,-0.125176
0.00396,-0.127324
0.0039605,-0.12088
0.003961,-0.129472
0.0039615,-0.123028
0.003962,-0.127324
0.0039625,-0.123028
0.003963,-0.125176
0.0039635,-0.12088
0.003964,-0.127324
0.0039645,-0.13162
0.003965,-0.123028
0.0039655,-0.13162
0.003966,-0.125176
0.0039665,-0.129472
0.003967,-0.123028
0.0039675,-0.129472
0.003968,-0.129472
0.0039685,-0.129472
0.003969,-0.127324
0.0039695,-0.127324
0.00397,-0.13162
0.0039705,-0.125176
0.003971,-0.127324
0.0039715,-0.123028
0.003972,-0.13162
0.0039725,-0.123028
0.003973,-0.129472
0.0039735,-0.123028
0.003974,-0.13162
0.0039745,-0.125176
0.003975,-0.127324
0.0039755,-0.125176
0.003976,-0.127324
0.0039765,-0.13162
0.003977,-0.125176
0.0039775,-0.129472
0.003978,-0.127324
0.0039785,-0.127324
0.003979,-0.123028
0.0039795,-0.129472
0.00398,-0.129472
0.0039805,-0.127324
0.003981,-0.123028
0.0039815,-0.123028
0.003982,-0.133768
0.0039825,-0.127324
0.003983,-0.127324
0.0039835,-0.118732
0.003984,-0.13162
0.0039845,-0.123028
0.003985,-0.129472
0.0039855,-0.12088
0.003986,-0.13162
0.0039865,-0.123028
0.003987,-0.125176
0.0039875,-0.125176
0.003988,-0.129472
0.0039885,-0.127324
0.003989,-0.127324
0.0039895,-0.127324
0.00399,-0.129472
0.0039905,-0.133768
0.003991,-0.129472
0.0039915,-0.129472
0.003992,-0.125176
0.0039925,-0.13162
0.003993,-0.125176
0.0039935,-0.125176
0.003994,-0.125176
0.0039945,-0.125176
0.003995,-0.127324
0.0039955,-0.12088
0.003996,-0.133768
0.0039965,-0.12088
0.003997,-0.13162
0.0039975,-0.123028
0.003998,-0.13162
0.0039985,-0.116583
0.003999,-0.125176
0.0039995,-0.127324
0.004,-0.129472
0.0040005,-0.125176
0.004001,-0.125176
0.0040015,-0.129472
0.004002,-0.129472
0.0040025,-0.129472
0.004003,-0.125176
0.0040035,-0.129472
0.004004,-0.125176
0.0040045,-0.127324
0.004005,-0.125176
0.0040055,-0.125176
0.004006,-0.127324
0.0040065,-0.123028
0.004007,-0.127324
0.0040075,-0.123028
0.004008,-0.133768
0.0040085,-0.123028
0.004009,-0.127324
0.0040095,-0.123028
0.00401,-0.133768
0.0040105,-0.123028
0.004011,-0.129472
0.0040115,-0.123028
0.004012,-0.13162
0.0040125,-0.123028
0.004013,-0.129472
0.0040135,-0.127324
0.004014,-0.127324
0.0040145,-0.13162
0.004015,-0.12088
0.0040155,-0.129472
0.004016,-0.125176
0.0040165,-0.13162
0.004017,-0.123028
0.0040175,-0.125176
0.004018,-0.127324
0.0040185,-0.129472
0.004019,-0.127324
0.0040195,-0.12088
0.00402,-0.13162
0.0040205,-0.125176
0.004021,-0.125176
0.0040215,-0.12088
0.004022,-0.133768
0.0040225,-0.123028
0.004023,-0.127324
0.0040235,-0.12088
0.004024,-0.129472
0.0040245,-0.125176
0.004025,-0.127324
0.0040255,-0.127324
0.004026,-0.125176
0.0040265,-0.13162
0.004027,-0.123028
0.0040275,-0.129472
0.004028,-0.12088
0.0040285,-0.129472
0.004029,-0.123028
0.0040295,-0.127324
0.00403,-0.125176
0.0040305,-0.127324
0.004031,-0.127324
0.0040315,-0.125176
0.004032,-0.13162
0.0040325,-0.125176
0.004033,-0.127324
0.0040335,-0.123028
0.004034,-0.135916
0.0040345,-0.125176
0.004035,-0.13162
0.0040355,-0.123028
0.004036,-0.133768
0.0040365,-0.127324
0.004037,-0.129472
0.0040375,-0.129472
0.004038,-0.129472
0.0040385,-0.13162
0.004039,-0.127324
0.0040395,-0.127324
0.00404,-0.127324
0.0040405,-0.13162
0.004041,-0.127324
0.0040415,-0.129472
0.004042,-0.129472
0.0040425,-0.133768
0.004043,-0.127324
0.0040435,-0.125176
0.004044,-0.129472
0.0040445,-0.125176
0.004045,-0.13162
0.0040455,-0.125176
0.004046,-0.133768
0.0040465,-0.127324
0.004047,-0.13162
0.0040475,-0.123028
0.004048,-0.129472
0.0040485,-0.129472
0.004049,-0.127324
0.0040495,-0.125176
0.00405,-0.125176
0.0040505,-0.13162
0.004051,-0.125176
0.0040515,-0.129472
0.004052,-0.125176
0.0040525,-0.13162
0.004053,-0.123028
0.0040535,-0.13162
0.004054,-0.125176
0.0040545,-0.13162
0.004055,-0.125176
0.0040555,-0.127324
0.004056,-0.127324
0.0040565,-0.127324
0.004057,-0.127324
0.0040575,-0.123028
0.004058,-0.13162
0.0040585,-0.123028
0.004059,-0.13162
0.0040595,-0.125176
0.00406,-0.129472
0.0040605,-0.129472
0.004061,-0.129472
0.0040615,-0.125176
0.004062,-0.127324
0.0040625,-0.135916
0.004063,-0.125176
0.0040635,-0.129472
0.004064,-0.125176
0.0040645,-0.133768
0.004065,-0.12088
0.0040655,-0.129472
0.004066,-0.118732
0.0040665,-0.13162
0.004067,-0.127324
0.0040675,-0.125176
0.004068,-0.125176
0.0040685,-0.127324
0.004069,-0.129472
0.0040695,-0.125176
0.00407,-0.125176
0.0040705,-0.127324
0.004071,-0.129472
0.0040715,-0.123028
0.004072,-0.129472
0.0040725,-0.127324
0.004073,-0.127324
0.0040735,-0.127324
0.004074,-0.12088
0.0040745,-0.13162
0.004075,-0.12088
0.0040755,-0.127324
0.004076,-0.12088
0.0040765,-0.133768
0.004077,-0.12088
0.0040775,-0.127324
0.004078,-0.12088
0.0040785,-0.13162
0.004079,-0.123028
0.0040795,-0.125176
0.00408,-0.12088
0.0040805,-0.129472
0.004081,-0.129472
0.0040815,-0.12088
0.004082,-0.125176
0.0040825,-0.129472
0.004083,-0.13162
0.0040835,-0.125176
0.004084,-0.13162
0.0040845,-0.127324
0.004085,-0.129472
0.0040855,-0.125176
0.004086,-0.127324
0.0040865,-0.127324
0.004087,-0.127324
0.0040875,-0.129472
0.004088,-0.12088
0.0040885,-0.133768
0.004089,-0.125176
0.0040895,-0.129472
0.00409,-0.12088
0.0040905,-0.135916
0.004091,-0.125176
0.0040915,-0.125176
0.004092,-0.125176
0.0040925,-0.127324
0.004093,-0.133768
0.0040935,-0.125176
0.004094,-0.13162
0.0040945,-0.129472
0.004095,-0.13162
0.0040955,-0.129472
0.004096,-0.129472
0.0040965,-0.125176
0.004097,-0.13162
0.0040975,-0.127324
0.004098,-0.127324
0.0040985,-0.13162
0.004099,-0.127324
0.0040995,-0.127324
0.0041,-0.125176
0.0041005,-0.13162
0.004101,-0.12088
0.0041015,-0.13162
0.004102,-0.125176
0.0041025,-0.13162
0.004103,-0.123028
0.0041035,-0.127324
0.004104,-0.125176
0.0041045,-0.129472
0.004105,-0.125176
0.0041055,-0.123028
0.004106,-0.125176
0.0041065,-0.125176
0.004107,-0.127324
0.0041075,-0.125176
0.004108,-0.129472
0.0041085,-0.125176
0.004109,-0.13162
0.0041095,-0.127324
0.00411,-0.127324
0.0041105,-0.13162
0.004111,-0.129472
0.0041115,-0.127324
0.004112,-0.125176
0.0041125,-0.13162
0.004113,-0.125176
0.0041135,-0.13162
0.004114,-0.123028
0.0041145,-0.13162
0.004115,-0.125176
0.0041155,-0.127324
0.004116,-0.123028
0.0041165,-0.13162
0.004117,-0.127324
0.0041175,-0.127324
0.004118,-0.127324
0.0041185,-0.127324
0.004119,-0.13162
0.0041195,-0.125176
0.00412,-0.13162
0.0041205,-0.125176
0.004121,-0.13162
0.0041215,-0.125176
0.004122,-0.129472
0.0041225,-0.129472
0.004123,-0.129472
0.0041235,-0.13162
0.004124,-0.12088
0.0041245,-0.133768
0.004125,-0.129472
0.0041255,-0.129472
0.004126,-0.12088
0.0041265,-0.13162
0.004127,-0.123028
0.0041275,-0.129472
0.004128,-0.123028
0.0041285,-0.127324
0.004129,-0.129472
0.0041295,-0.125176
0.00413,-0.123028
0.0041305,-0.123028
0.004131,-0.129472
0.0041315,-0.116583
0.004132,-0.127324
0.0041325,-0.123028
0.004133,-0.13162
0.0041335,-0.123028
0.004134,-0.123028
0.0041345,-0.125176
0.004135,-0.129472
0.0041355,-0.125176
0.004136,-0.125176
0.0041365,-0.127324
0.004137,-0.125176
0.0041375,-0.127324
0.004138,-0.12088
0.0041385,-0.129472
0.004139,-0.123028
0.0041395,-0.129472
0.00414,-0.12088
0.0041405,-0.129472
0.004141,-0.129472
0.0041415,-0.125176
0.004142,-0.123028
0.0041425,-0.123028
0.004143,-0.13162
0.0041435,-0.12088
0.004144,-0.127324
0.0041445,-0.123028
0.004145,-0.13162
0.0041455,-0.125176
0.004146,-0.129472
0.0041465,-0.125176
0.004147,-0.129472
0.0041475,-0.127324
0.004148,-0.127324
0.0041485,-0.129472
0.004149,-0.133768
0.0041495,-0.127324
0.00415,-0.125176
0.0041505,-0.133768
0.004151,-0.129472
0.0041515,-0.13162
0.004152,-0.125176
0.0041525,-0.127324
0.004153,-0.13162
0.0041535,-0.127324
0.004154,-0.127324
0.0041545,-0.125176
0.004155,-0.133768
0.0041555,-0.123028
0.004156,-0.129472
0.0041565,-0.118732
0.004157,-0.133768
0.0041575,-0.123028
0.004158,-0.125176
0.0041585,-0.12088
0.004159,-0.129472
0.0041595,-0.125176
0.00416,-0.125176
0.0041605,-0.127324
0.004161,-0.129472
0.0041615,-0.13162
0.004162,-0.125176
0.0041625,-0.129472
0.004163,-0.129472
0.0041635,-0.13162
0.004164,-0.125176
0.0041645,-0.129472
0.004165,-0.129472
0.0041655,-0.127324
0.004166,-0.125176
0.0041665,-0.125176
0.004167,-0.129472
0.0041675,-0.125176
0.004168,-0.127324
0.0041685,-0.123028
0.004169,-0.133768
0.0041695,-0.12088
0.00417,-0.129472
0.0041705,-0.12088
0.004171,-0.129472
0.0041715,-0.123028
0.004172,-0.127324
0.0041725,-0.129472
0.004173,-0.127324
0.0041735,-0.13162
0.004174,-0.125176
0.0041745,-0.129472
0.004175,-0.127324
0.0041755,-0.129472
0.004176,-0.129472
0.0041765,-0.129472
0.004177,-0.129472
0.0041775,-0.129472
0.004178,-0.125176
0.0041785,-0.125176
0.004179,-0.13162
0.0041795,-0.123028
0.00418,-0.127324
0.0041805,-0.125176
0.004181,-0.133768
0.0041815,-0.125176
0.004182,-0.129472
0.0041825,-0.12088
0.004183,-0.13162
0.0041835,-0.125176
0.004184,-0.129472
0.0041845,-0.127324
0.004185,-0.129472
0.0041855,-0.129472
0.004186,-0.127324
0.0041865,-0.129472
0.004187,-0.129472
0.0041875,-0.13162
0.004188,-0.127324
0.0041885,-0.13162
0.004189,-0.125176
0.0041895,-0.129472
0.00419,-0.127324
0.0041905,-0.125176
0.004191,-0.127324
0.0041915,-0.125176
0.004192,-0.125176
0.0041925,-0.123028
0.004193,-0.133768
0.0041935,-0.118732
0.004194,-0.129472
0.0041945,-0.125176
0.004195,-0.13162
0.0041955,-0.123028
0.004196,-0.127324
0.0041965,-0.125176
0.004197,-0.129472
0.0041975,-0.123028
0.004198,-0.123028
0.0041985,-0.129472
0.004199,-0.125176
0.0041995,-0.129472
0.0042,-0.127324
0.0042005,-0.127324
0.004201,-0.12088
0.0042015,-0.127324
0.004202,-0.125176
0.0042025,-0.127324
0.004203,-0.133768
0.0042035,-0.125176
0.004204,-0.127324
0.0042045,-0.125176
0.004205,-0.129472
0.0042055,-0.123028
0.004206,-0.129472
0.0042065,-0.123028
0.004207,-0.13162
0.0042075,-0.123028
0.004208,-0.129472
0.0042085,-0.125176
0.004209,-0.129472
0.0042095,-0.125176
0.00421,-0.125176
0.0042105,-0.129472
0.004211,-0.127324
0.0042115,-0.13162
0.004212,-0.125176
0.0042125,-0.13162
0.004213,-0.127324
0.0042135,-0.13162
0.004214,-0.125176
0.0042145,-0.129472
0.004215,-0.129472
0.0042155,-0.129472
0.004216,-0.127324
0.0042165,-0.125176
0.004217,-0.129472
0.0042175,-0.123028
0.004218,-0.127324
0.0042185,-0.123028
0.004219,-0.135916
0.0042195,-0.13162
0.00422,-0.129472
0.0042205,-0.123028
0.004221,-0.123028
0.0042215,-0.129472
0.004222,-0.125176
0.0042225,-0.127324
0.004223,-0.123028
0.0042235,-0.13162
0.004224,-0.125176
0.0042245,-0.127324
0.004225,-0.123028
0.0042255,-0.129472
0.004226,-0.123028
0.0042265,-0.125176
0.004227,-0.123028
0.0042275,-0.129472
0.004228,-0.129472
0.0042285,-0.12088
0.004229,-0.127324
0.0042295,-0.125176
0.00423,-0.129472
0.0042305,-0.12088
0.004231,-0.127324
0.0042315,-0.123028
0.004232,-0.127324
0.0042325,-0.123028
0.004233,-0.127324
0.0042335,-0.129472
0.004234,-0.125176
0.0042345,-0.127324
0.004235,-0.123028
0.0042355,-0.133768
0.004236,-0.118732
0.0042365,-0.129472
0.004237,-0.12088
0.0042375,-0.13162
0.004238,-0.125176
0.0042385,-0.127324
0.004239,-0.125176
0.0042395,-0.133768
0.00424,-0.13162
0.0042405,-0.125176
0.004241,-0.127324
0.0042415,-0.127324
0.004242,-0.129472
0.0042425,-0.12088
0.004243,-0.125176
0.0042435,-0.127324
0.004244,-0.127324
0.0042445,-0.123028
0.004245,-0.13162
0.0042455,-0.13162
0.004246,-0.125176
0.0042465,-0.125176
0.004247,-0.12088
0.0042475,-0.13162
0.004248,-0.118732
0.0042485,-0.129472
0.004249,-0.12088
0.0042495,-0.135916
0.00425,-0.123028
0.0042505,-0.125176
0.004251,-0.125176
0.0042515,-0.13162
0.004252,-0.13162
0.0042525,-0.125176
0.004253,-0.129472
0.0042535,-0.127324
0.004254,-0.129472
0.0042545,-0.127324
0.004255,-0.129472
0.0042555,-0.13162
0.004256,-0.13162
0.0042565,-0.125176
0.004257,-0.129472
0.0042575,-0.127324
0.004258,-0.127324
0.0042585,-0.129472
0.004259,-0.123028
0.0042595,-0.13162
0.00426,-0.125176
0.0042605,-0.13162
0.004261,-0.125176
0.0042615,-0.133768
0.004262,-0.123028
0.0042625,-0.129472
0.004263,-0.125176
0.0042635,-0.13162
0.004264,-0.125176
0.0042645,-0.129472
0.004265,-0.127324
0.0042655,-0.13162
0.004266,-0.129472
0.0042665,-0.127324
0.004267,-0.129472
0.0042675,-0.123028
0.004268,-0.129472
0.0042685,-0.125176
0.004269,-0.127324
0.0042695,-0.127324
0.00427,-0.127324
0.0042705,-0.123028
0.004271,-0.127324
0.0042715,-0.13162
0.004272,-0.125176
0.0042725,-0.127324
0.004273,-0.127324
0.0042735,-0.13162
0.004274,-0.127324
0.0042745,-0.129472
0.004275,-0.125176
0.0042755,-0.135916
0.004276,-0.12088
0.0042765,-0.129472
0.004277,-0.127324
0.0042775,-0.133768
0.004278,-0.127324
0.0042785,-0.125176
0.004279,-0.129472
0.0042795,-0.125176
0.00428,-0.129472
0.0042805,-0.127324
0.004281,-0.129472
0.0042815,-0.127324
0.004282,-0.127324
0.0042825,-0.127324
0.004283,-0.129472
0.0042835,-0.129472
0.004284,-0.129472
0.0042845,-0.129472
0.004285,-0.123028
0.0042855,-0.129472
0.004286,-0.125176
0.0042865,-0.129472
0.004287,-0.125176
0.0042875,-0.13162
0.004288,-0.125176
0.0042885,-0.127324
0.004289,-0.129472
0.0042895,-0.129472
0.00429,-0.129472
0.0042905,-0.125176
0.004291,-0.13162
0.0042915,-0.125176
0.004292,-0.13162
0.0042925,-0.123028
0.004293,-0.129472
0.0042935,-0.127324
0.004294,-0.129472
0.0042945,-0.125176
0.004295,-0.127324
0.0042955,-0.127324
0.004296,-0.125176
0.0042965,-0.127324
0.004297,-0.123028
0.0042975,-0.13162
0.004298,-0.123028
0.0042985,-0.13162
0.004299,-0.123028
0.0042995,-0.13162
0.0043,-0.125176
0.0043005,-0.125176
0.004301,-0.127324
0.0043015,-0.129472
0.004302,-0.13162
0.0043025,-0.123028
0.004303,-0.127324
0.0043035,-0.125176
0.004304,-0.133768
0.0043045,-0.123028
0.004305,-0.129472
0.0043055,-0.123028
0.004306,-0.13162
0.0043065,-0.125176
0.004307,-0.127324
0.0043075,-0.127324
0.004308,-0.129472
0.0043085,-0.127324
0.004309,-0.12088
0.0043095,-0.129472
0.00431,-0.125176
0.0043105,-0.135916
0.004311,-0.12088
0.0043115,-0.127324
0.004312,-0.125176
0.0043125,-0.127324
0.004313,-0.123028
0.0043135,-0.125176
0.004314,-0.129472
0.0043145,-0.125176
0.004315,-0.127324
0.0043155,-0.12088
0.004316,-0.133768
0.0043165,-0.125176
0.004317,-0.13162
0.0043175,-0.12088
0.004318,-0.13162
0.0043185,-0.127324
0.004319,-0.127324
0.0043195,-0.125176
0.00432,-0.129472
0.0043205,-0.129472
0.004321,-0.123028
0.0043215,-0.129472
0.004322,-0.125176
0.0043225,-0.13162
0.004323,-0.123028
0.0043235,-0.129472
0.004324,-0.127324
0.0043245,-0.129472
0.004325,-0.127324
0.0043255,-0.129472
0.004326,-0.133768
0.0043265,-0.125176
0.004327,-0.13162
0.0043275,-0.12088
0.004328,-0.133768
0.0043285,-0.125176
0.004329,-0.13162
0.0043295,-0.12088
0.00433,-0.133768
0.0043305,-0.127324
0.004331,-0.129472
0.0043315,-0.125176
0.004332,-0.13162
0.0043325,-0.129472
0.004333,-0.123028
0.0043335,-0.129472
0.004334,-0.127324
0.0043345,-0.129472
0.004335,-0.12088
0.0043355,-0.13162
0.004336,-0.129472
0.0043365,-0.129472
0.004337,-0.123028
0.0043375,-0.123028
0.004338,-0.129472
0.0043385,-0.125176
0.004339,-0.127324
0.0043395,-0.12088
0.00434,-0.129472
0.0043405,-0.125176
0.004341,-0.129472
0.0043415,-0.118732
0.004342,-0.13162
0.0043425,-0.123028
0.004343,-0.127324
0.0043435,-0.123028
0.004344,-0.133768
0.0043445,-0.129472
0.004345,-0.127324
0.0043455,-0.127324
0.004346,-0.13162
0.0043465,-0.13162
0.004347,-0.127324
0.0043475,-0.127324
0.004348,-0.129472
0.0043485,-0.13162
0.004349,-0.125176
0.0043495,-0.127324
0.00435,-0.129472
0.0043505,-0.125176
0.004351,-0.125176
0.0043515,-0.123028
0.004352,-0.13162
0.0043525,-0.12088
0.004353,-0.127324
0.0043535,-0.12088
0.004354,-0.129472
0.0043545,-0.125176
0.004355,-0.127324
0.0043555,-0.127324
0.004356,-0.13162
0.0043565,-0.127324
0.004357,-0.125176
0.0043575,-0.129472
0.004358,-0.127324
0.0043585,-0.129472
0.004359,-0.127324
0.0043595,-0.129472
0.00436,-0.125176
0.0043605,-0.13162
0.004361,-0.125176
0.0043615,-0.127324
0.004362,-0.127324
0.0043625,-0.125176
0.004363,-0.125176
0.0043635,-0.125176
0.004364,-0.133768
0.0043645,-0.12088
0.004365,-0.127324
0.0043655,-0.123028
0.004366,-0.133768
0.0043665,-0.118732
0.004367,-0.129472
0.0043675,-0.12088
0.004368,-0.133768
0.0043685,-0.127324
0.004369,-0.125176
0.0043695,-0.127324
0.00437,-0.125176
0.0043705,-0.129472
0.004371,-0.123028
0.0043715,-0.127324
0.004372,-0.125176
0.0043725,-0.129472
0.004373,-0.125176
0.0043735,-0.125176
0.004374,-0.127324
0.0043745,-0.127324
0.004375,-0.125176
0.0043755,-0.125176
0.004376,-0.13162
0.0043765,-0.125176
0.004377,-0.129472
0.0043775,-0.118732
0.004378,-0.129472
0.0043785,-0.123028
0.004379,-0.127324
0.0043795,-0.123028
0.00438,-0.127324
0.0043805,-0.123028
0.004381,-0.127324
0.0043815,-0.125176
0.004382,-0.127324
0.0043825,-0.127324
0.004383,-0.123028
0.0043835,-0.127324
0.004384,-0.123028
0.0043845,-0.13162
0.004385,-0.123028
0.0043855,-0.118732
0.004386,-0.12088
0.0043865,-0.129472
0.004387,-0.12088
0.0043875,-0.12088
0.004388,-0.127324
0.0043885,-0.125176
0.004389,-0.129472
0.0043895,-0.118732
0.00439,-0.127324
0.0043905,-0.125176
0.004391,-0.129472
0.0043915,-0.12088
0.004392,-0.127324
0.0043925,-0.127324
0.004393,-0.125176
0.0043935,-0.123028
0.004394,-0.125176
0.0043945,-0.13162
0.004395,-0.12088
0.0043955,-0.129472
0.004396,-0.12088
0.0043965,-0.13162
0.004397,-0.123028
0.0043975,-0.13162
0.004398,-0.123028
0.0043985,-0.13162
0.004399,-0.127324
0.0043995,-0.125176
0.0044,-0.123028
0.0044005,-0.129472
0.004401,-0.129472
0.0044015,-0.12088
0.004402,-0.129472
0.0044025,-0.127324
0.004403,-0.127324
0.0044035,-0.123028
0.004404,-0.125176
0.0044045,-0.127324
0.004405,-0.125176
0.0044055,-0.125176
0.004406,-0.12088
0.0044065,-0.129472
0.004407,-0.125176
0.0044075,-0.127324
0.004408,-0.125176
0.0044085,-0.133768
0.004409,-0.125176
0.0044095,-0.129472
0.00441,-0.123028
0.0044105,-0.129472
0.004411,-0.125176
0.0044115,-0.127324
0.004412,-0.125176
0.0044125,-0.127324
0.004413,-0.133768
0.0044135,-0.125176
0.004414,-0.129472
0.0044145,-0.127324
0.004415,-0.13162
0.0044155,-0.12088
0.004416,-0.127324
0.0044165,-0.127324
0.004417,-0.127324
0.0044175,-0.125176
0.004418,-0.123028
0.0044185,-0.127324
0.004419,-0.125176
0.0044195,-0.129472
0.00442,-0.12088
0.0044205,-0.13162
0.004421,-0.12088
0.0044215,-0.129472
0.004422,-0.123028
0.0044225,-0.13162
0.004423,-0.12088
0.0044235,-0.127324
0.004424,-0.125176
0.0044245,-0.125176
0.004425,-0.13162
0.0044255,-0.125176
0.004426,-0.127324
0.0044265,-0.127324
0.004427,-0.129472
0.0044275,-0.123028
0.004428,-0.13162
0.0044285,-0.125176
0.004429,-0.135916
0.0044295,-0.127324
0.00443,-0.127324
0.0044305,-0.13162
0.004431,-0.127324
0.0044315,-0.127324
0.004432,-0.123028
0.0044325,-0.133768
0.004433,-0.12088
0.0044335,-0.13162
0.004434,-0.127324
0.0044345,-0.133768
0.004435,-0.125176
0.0044355,-0.129472
0.004436,-0.125176
0.0044365,-0.13162
0.004437,-0.129472
0.0044375,-0.125176
0.004438,-0.129472
0.0044385,-0.125176
0.004439,-0.13162
0.0044395,-0.127324
0.00444,-0.129472
0.0044405,-0.127324
0.004441,-0.13162
0.0044415,-0.125176
0.004442,-0.127324
0.0044425,-0.129472
0.004443,-0.127324
0.0044435,-0.127324
0.004444,-0.125176
0.0044445,-0.133768
0.004445,-0.123028
0.0044455,-0.13162
0.004446,-0.125176
0.0044465,-0.133768
0.004447,-0.125176
0.0044475,-0.129472
0.004448,-0.127324
0.0044485,-0.13162
0.004449,-0.129472
0.0044495,-0.127324
0.00445,-0.125176
0.0044505,-0.125176
0.004451,-0.129472
0.0044515,-0.123028
0.004452,-0.13162
0.0044525,-0.127324
0.004453,-0.129472
0.0044535,-0.125176
0.004454,-0.127324
0.0044545,-0.129472
0.004455,-0.127324
0.0044555,-0.127324
0.004456,-0.123028
0.0044565,-0.127324
0.004457,-0.12088
0.0044575,-0.13162
0.004458,-0.118732
0.0044585,-0.13162
0.004459,-0.123028
0.0044595,-0.129472
0.00446,-0.123028
0.0044605,-0.129472
0.004461,-0.125176
0.0044615,-0.125176
0.004462,-0.125176
0.0044625,-0.125176
0.004463,-0.133768
0.0044635,-0.123028
0.004464,-0.127324
0.0044645,-0.123028
0.004465,-0.133768
0.0044655,-0.125176
0.004466,-0.127324
0.0044665,-0.127324
0.004467,-0.125176
0.0044675,-0.129472
0.004468,-0.123028
0.0044685,-0.127324
0.004469,-0.123028
0.0044695,-0.13162
0.00447,-0.12088
0.0044705,-0.127324
0.004471,-0.127324
0.0044715,-0.127324
0.004472,-0.125176
0.0044725,-0.125176
0.004473,-0.125176
0.0044735,-0.125176
0.004474,-0.127324
0.0044745,-0.125176
0.004475,-0.13162
0.0044755,-0.123028
0.004476,-0.13162
0.0044765,-0.125176
0.004477,-0.13162
0.0044775,-0.123028
0.004478,-0.13162
0.0044785,-0.125176
0.004479,-0.129472
0.0044795,-0.129472
0.00448,-0.127324
0.0044805,-0.127324
0.004481,-0.129472
0.0044815,-0.13162
0.004482,-0.123028
0.0044825,-0.129472
0.004483,-0.127324
0.0044835,-0.129472
0.004484,-0.125176
0.0044845,-0.127324
0.004485,-0.129472
0.0044855,-0.127324
0.004486,-0.125176
0.0044865,-0.123028
0.004487,-0.13162
0.0044875,-0.12088
0.004488,-0.127324
0.0044885,-0.12088
0.004489,-0.13162
0.0044895,-0.12088
0.00449,-0.129472
0.0044905,-0.123028
0.004491,-0.129472
0.0044915,-0.125176
0.004492,-0.127324
0.0044925,-0.125176
0.004493,-0.129472
0.0044935,-0.127324
0.004494,-0.125176
0.0044945,-0.127324
0.004495,-0.127324
0.0044955,-0.127324
0.004496,-0.12088
0.0044965,-0.127324
0.004497,-0.127324
0.0044975,-0.125176
0.004498,-0.125176
0.0044985,-0.125176
0.004499,-0.127324
0.0044995,-0.123028
0.0045,-0.129472
0.0045005,-0.12088
0.004501,-0.133768
0.0045015,-0.12088
0.004502,-0.129472
0.0045025,-0.12088
0.004503,-0.13162
0.0045035,-0.125176
0.004504,-0.129472
0.0045045,-0.127324
0.004505,-0.13162
0.0045055,-0.13162
0.004506,-0.127324
0.0045065,-0.13162
0.004507,-0.129472
0.0045075,-0.13162
0.004508,-0.125176
0.0045085,-0.127324
0.004509,-0.127324
0.0045095,-0.129472
0.00451,-0.125176
0.0045105,-0.129472
0.004511,-0.129472
0.0045115,-0.125176
0.004512,-0.129472
0.0045125,-0.123028
0.004513,-0.135916
0.0045135,-0.125176
0.004514,-0.129472
0.0045145,-0.125176
0.004515,-0.133768
0.0045155,-0.127324
0.004516,-0.127324
0.0045165,-0.127324
0.004517,-0.129472
0.0045175,-0.13162
0.004518,-0.127324
0.0045185,-0.129472
0.004519,-0.127324
0.0045195,-0.129472
0.00452,-0.123028
0.0045205,-0.13162
0.004521,-0.125176
0.0045215,-0.129472
0.004522,-0.125176
0.0045225,-0.123028
0.004523,-0.129472
0.0045235,-0.125176
0.004524,-0.129472
0.0045245,-0.123028
0.004525,-0.133768
0.0045255,-0.12088
0.004526,-0.127324
0.0045265,-0.123028
0.004527,-0.129472
0.0045275,-0.125176
0.004528,-0.127324
0.0045285,-0.125176
0.004529,-0.125176
0.0045295,-0.13162
0.00453,-0.123028
0.0045305,-0.127324
0.004531,-0.123028
0.0045315,-0.13162
0.004532,-0.123028
0.0045325,-0.129472
0.004533,-0.129472
0.0045335,-0.127324
0.004534,-0.129472
0.0045345,-0.125176
0.004535,-0.129472
0.0045355,-0.127324
0.004536,-0.127324
0.0045365,-0.127324
0.004537,-0.13162
0.0045375,-0.125176
0.004538,-0.13162
0.0045385,-0.123028
0.004539,-0.13162
0.0045395,-0.125176
0.00454,-0.129472
0.0045405,-0.127324
0.004541,-0.129472
0.0045415,-0.13162
0.004542,-0.127324
0.0045425,-0.129472
0.004543,-0.125176
0.0045435,-0.135916
0.004544,-0.127324
0.0045445,-0.129472
0.004545,-0.127324
0.0045455,-0.129472
0.004546,-0.127324
0.0045465,-0.127324
0.004547,-0.129472
0.0045475,-0.127324
0.004548,-0.129472
0.0045485,-0.125176
0.004549,-0.129472
0.0045495,-0.125176
0.00455,-0.13162
0.0045505,-0.125176
0.004551,-0.129472
0.0045515,-0.125176
0.004552,-0.129472
0.0045525,-0.125176
0.004553,-0.129472
0.0045535,-0.127324
0.004554,-0.123028
0.0045545,-0.13162
0.004555,-0.12088
0.0045555,-0.13162
0.004556,-0.123028
0.0045565,-0.133768
0.004557,-0.125176
0.0045575,-0.13162
0.004558,-0.127324
0.0045585,-0.13162
0.004559,-0.125176
0.0045595,-0.129472
0.00456,-0.129472
0.0045605,-0.125176
0.004561,-0.13162
0.0045615,-0.127324
0.004562,-0.129472
0.0045625,-0.12088
0.004563,-0.129472
0.0045635,-0.125176
0.004564,-0.129472
0.0045645,-0.125176
0.004565,-0.125176
0.0045655,-0.13162
0.004566,-0.129472
0.0045665,-0.127324
0.004567,-0.127324
0.0045675,-0.133768
0.004568,-0.123028
0.0045685,-0.13162
0.004569,-0.123028
0.0045695,-0.13162
0.00457,-0.125176
0.0045705,-0.129472
0.004571,-0.129472
0.0045715,-0.13162
0.004572,-0.129472
0.0045725,-0.123028
0.004573,-0.129472
0.0045735,-0.129472
0.004574,-0.129472
0.0045745,-0.12088
0.004575,-0.13162
0.0045755,-0.127324
0.004576,-0.13162
0.0045765,-0.123028
0.004577,-0.125176
0.0045775,-0.129472
0.004578,-0.129472
0.0045785,-0.127324
0.004579,-0.125176
0.0045795,-0.13162
0.00458,-0.123028
0.0045805,-0.129472
0.004581,-0.12088
0.0045815,-0.13162
0.004582,-0.12088
0.0045825,-0.125176
0.004583,-0.12088
0.0045835,-0.129472
0.004584,-0.127324
0.0045845,-0.123028
0.004585,-0.127324
0.0045855,-0.125176
0.004586,-0.127324
0.0045865,-0.118732
0.004587,-0.13162
0.0045875,-0.123028
0.004588,-0.129472
0.0045885,-0.123028
0.004589,-0.127324
0.0045895,-0.13162
0.00459,-0.125176
0.0045905,-0.127324
0.004591,-0.12088
0.0045915,-0.13162
0.004592,-0.123028
0.0045925,-0.129472
0.004593,-0.12088
0.0045935,-0.13162
0.004594,-0.125176
0.0045945,-0.129472
0.004595,-0.12088
0.0045955,-0.127324
0.004596,-0.125176
0.0045965,-0.127324
0.004597,-0.125176
0.0045975,-0.127324
0.004598,-0.129472
0.0045985,-0.12088
0.004599,-0.125176
0.0045995,-0.127324
0.0046,-0.129472
0.0046005,-0.12088
0.004601,-0.125176
0.0046015,-0.125176
0.004602,-0.125176
0.0046025,-0.123028
0.004603,-0.12088
0.0046035,-0.133768
0.004604,-0.123028
0.0046045,-0.127324
0.004605,-0.12088
0.0046055,-0.13162
0.004606,-0.12088
0.0046065,-0.127324
0.004607,-0.123028
0.0046075,-0.13162
0.004608,-0.127324
0.0046085,-0.127324
0.004609,-0.125176
0.0046095,-0.129472
0.00461,-0.13162
0.0046105,-0.125176
0.004611,-0.13162
0.0046115,-0.127324
0.004612,-0.13162
0.0046125,-0.125176
0.004613,-0.129472
0.0046135,-0.127324
0.004614,-0.129472
0.0046145,-0.125176
0.004615,-0.123028
0.0046155,-0.129472
0.004616,-0.123028
0.0046165,-0.13162
0.004617,-0.123028
0.0046175,-0.133768
0.004618,-0.123028
0.0046185,-0.129472
0.004619,-0.123028
0.0046195,-0.13162
0.00462,-0.125176
0.0046205,-0.127324
0.004621,-0.125176
0.0046215,-0.123028
0.004622,-0.129472
0.0046225,-0.123028
0.004623,-0.125176
0.0046235,-0.125176
0.004624,-0.13162
0.0046245,-0.123028
0.004625,-0.127324
0.0046255,-0.127324
0.004626,-0.127324
0.0046265,-0.12088
0.004627,-0.125176
0.0046275,-0.13162
0.004628,-0.123028
0.0046285,-0.125176
0.004629,-0.12088
0.0046295,-0.13162
0.00463,-0.123028
0.0046305,-0.129472
0.004631,-0.125176
0.0046315,-0.129472
0.004632,-0.123028
0.0046325,-0.127324
0.004633,-0.125176
0.0046335,-0.127324
0.004634,-0.129472
0.0046345,-0.125176
0.004635,-0.125176
0.0046355,-0.123028
0.004636,-0.135916
0.0046365,-0.125176
0.004637,-0.13162
0.0046375,-0.129472
0.004638,-0.133768
0.0046385,-0.123028
0.004639,-0.129472
0.0046395,-0.13162
0.00464,-0.129472
0.0046405,-0.125176
0.004641,-0.125176
0.0046415,-0.135916
0.004642,-0.127324
0.0046425,-0.129472
0.004643,-0.125176
0.0046435,-0.13162
0.004644,-0.125176
0.0046445,-0.127324
0.004645,-0.127324
0.0046455,-0.127324
0.004646,-0.129472
0.0046465,-0.125176
0.004647,-0.13162
0.0046475,-0.125176
0.004648,-0.129472
0.0046485,-0.125176
0.004649,-0.129472
0.0046495,-0.127324
0.00465,-0.133768
0.0046505,-0.125176
0.004651,-0.129472
0.0046515,-0.127324
0.004652,-0.129472
0.0046525,-0.127324
0.004653,-0.123028
0.0046535,-0.129472
0.004654,-0.127324
0.0046545,-0.127324
0.004655,-0.125176
0.0046555,-0.129472
0.004656,-0.127324
0.0046565,-0.127324
0.004657,-0.125176
0.0046575,-0.127324
0.004658,-0.133768
0.0046585,-0.125176
0.004659,-0.129472
0.0046595,-0.127324
0.00466,-0.133768
0.0046605,-0.125176
0.004661,-0.127324
0.0046615,-0.125176
0.004662,-0.13162
0.0046625,-0.123028
0.004663,-0.129472
0.0046635,-0.125176
0.004664,-0.129472
0.0046645,-0.125176
0.004665,-0.12088
0.0046655,-0.127324
0.004666,-0.123028
0.0046665,-0.127324
0.004667,-0.12088
0.0046675,-0.125176
0.004668,-0.125176
0.0046685,-0.127324
0.004669,-0.12088
0.0046695,-0.125176
0.00467,-0.129472
0.0046705,-0.123028
0.004671,-0.129472
0.0046715,-0.123028
0.004672,-0.13162
0.0046725,-0.123028
0.004673,-0.127324
0.0046735,-0.12088
0.004674,-0.13162
0.0046745,-0.127324
0.004675,-0.123028
0.0046755,-0.118732
0.004676,-0.129472
0.0046765,-0.129472
0.004677,-0.12088
0.0046775,-0.127324
0.004678,-0.125176
0.0046785,-0.127324
0.004679,-0.118732
0.0046795,-0.127324
0.00468,-0.125176
0.0046805,-0.127324
0.004681,-0.123028
0.0046815,-0.125176
0.004682,-0.129472
0.0046825,-0.123028
0.004683,-0.13162
0.0046835,-0.12088
0.004684,-0.13162
0.0046845,-0.123028
0.004685,-0.13162
0.0046855,-0.123028
0.004686,-0.13162
0.0046865,-0.125176
0.004687,-0.127324
0.0046875,-0.125176
0.004688,-0.127324
0.0046885,-0.127324
0.004689,-0.123028
0.0046895,-0.125176
0.00469,-0.125176
0.0046905,-0.129472
0.004691,-0.12088
0.0046915,-0.127324
0.004692,-0.127324
0.0046925,-0.13162
0.004693,-0.12088
0.0046935,-0.125176
0.004694,-0.125176
0.0046945,-0.127324
0.004695,-0.12088
0.0046955,-0.12088
0.004696,-0.13162
0.0046965,-0.123028
0.004697,-0.129472
0.0046975,-0.116583
0.004698,-0.129472
0.0046985,-0.123028
0.004699,-0.127324
0.0046995,-0.118732
0.0047,-0.127324
0.0047005,-0.127324
0.004701,-0.123028
0.0047015,-0.125176
0.004702,-0.125176
0.0047025,-0.129472
0.004703,-0.12088
0.0047035,-0.125176
0.004704,-0.123028
0.0047045,-0.129472
0.004705,-0.123028
0.0047055,-0.127324
0.004706,-0.123028
0.0047065,-0.127324
0.004707,-0.123028
0.0047075,-0.125176
0.004708,-0.127324
0.0047085,-0.123028
0.004709,-0.129472
0.0047095,-0.127324
0.00471,-0.129472
0.0047105,-0.125176
0.004711,-0.127324
0.0047115,-0.129472
0.004712,-0.129472
0.0047125,-0.127324
0.004713,-0.127324
0.0047135,-0.129472
0.004714,-0.127324
0.0047145,-0.129472
0.004715,-0.125176
0.0047155,-0.129472
0.004716,-0.125176
0.0047165,-0.13162
0.004717,-0.125176
0.0047175,-0.127324
0.004718,-0.129472
0.0047185,-0.127324
0.004719,-0.125176
0.0047195,-0.125176
0.00472,-0.129472
0.0047205,-0.12088
0.004721,-0.127324
0.0047215,-0.12088
0.004722,-0.129472
0.0047225,-0.125176
0.004723,-0.127324
0.0047235,-0.123028
0.004724,-0.129472
0.0047245,-0.127324
0.004725,-0.127324
0.0047255,-0.127324
0.004726,-0.125176
0.0047265,-0.127324
0.004727,-0.123028
0.0047275,-0.13162
0.004728,-0.127324
0.0047285,-0.133768
0.004729,-0.125176
0.0047295,-0.129472
0.00473,-0.129472
0.0047305,-0.13162
0.004731,-0.125176
0.0047315,-0.125176
0.004732,-0.13162
0.0047325,-0.127324
0.004733,-0.129472
0.0047335,-0.12088
0.004734,-0.129472
0.0047345,-0.123028
0.004735,-0.13162
0.0047355,-0.123028
0.004736,-0.129472
0.0047365,-0.129472
0.004737,-0.129472
0.0047375,-0.125176
0.004738,-0.127324
0.0047385,-0.13162
0.004739,-0.123028
0.0047395,-0.127324
0.00474,-0.125176
0.0047405,-0.133768
0.004741,-0.123028
0.0047415,-0.129472
0.004742,-0.12088
0.0047425,-0.13162
0.004743,-0.125176
0.0047435,-0.123028
0.004744,-0.127324
0.0047445,-0.127324
0.004745,-0.13162
0.0047455,-0.123028
0.004746,-0.129472
0.0047465,-0.125176
0.004747,-0.13162
0.0047475,-0.12088
0.004748,-0.129472
0.0047485,-0.13162
0.004749,-0.127324
0.0047495,-0.125176
0.00475,-0.125176
0.0047505,-0.13162
0.004751,-0.125176
0.0047515,-0.129472
0.004752,-0.123028
0.0047525,-0.133768
0.004753,-0.123028
0.0047535,-0.13162
0.004754,-0.12088
0.0047545,-0.13162
0.004755,-0.129472
0.0047555,-0.127324
0.004756,-0.123028
0.0047565,-0.127324
0.004757,-0.133768
0.0047575,-0.123028
0.004758,-0.129472
0.0047585,-0.127324
0.004759,-0.133768
0.0047595,-0.12088
0.00476,-0.125176
0.0047605,-0.127324
0.004761,-0.129472
0.0047615,-0.125176
0.004762,-0.123028
0.0047625,-0.13162
0.004763,-0.12088
0.0047635,-0.125176
0.004764,-0.116583
0.0047645,-0.129472
0.004765,-0.12088
0.0047655,-0.127324
0.004766,-0.116583
0.0047665,-0.129472
0.004767,-0.125176
0.0047675,-0.125176
0.004768,-0.125176
0.0047685,-0.127324
0.004769,-0.129472
0.0047695,-0.125176
0.00477,-0.129472
0.0047705,-0.127324
0.004771,-0.127324
0.0047715,-0.125176
0.004772,-0.127324
0.0047725,-0.127324
0.004773,-0.127324
0.0047735,-0.125176
0.004774,-0.127324
0.0047745,-0.133768
0.004775,-0.123028
0.0047755,-0.129472
0.004776,-0.123028
0.0047765,-0.133768
0.004777,-0.123028
0.0047775,-0.129472
0.004778,-0.125176
0.0047785,-0.13162
0.004779,-0.125176
0.0047795,-0.129472
0.00478,-0.127324
0.0047805,-0.133768
0.004781,-0.129472
0.0047815,-0.127324
0.004782,-0.13162
0.0047825,-0.127324
0.004783,-0.129472
0.0047835,-0.127324
0.004784,-0.129472
0.0047845,-0.125176
0.004785,-0.129472
0.0047855,-0.125176
0.004786,-0.123028
0.0047865,-0.129472
0.004787,-0.125176
0.0047875,-0.125176
0.004788,-0.125176
0.0047885,-0.129472
0.004789,-0.123028
0.0047895,-0.129472
0.00479,-0.123028
0.0047905,-0.13162
0.004791,-0.12088
0.0047915,-0.129472
0.004792,-0.125176
0.0047925,-0.127324
0.004793,-0.129472
0.0047935,-0.125176
0.004794,-0.127324
0.0047945,-0.127324
0.004795,-0.129472
0.0047955,-0.125176
0.004796,-0.129472
0.0047965,-0.127324
0.004797,-0.13162
0.0047975,-0.123028
0.004798,-0.125176
0.0047985,-0.127324
0.004799,-0.127324
0.0047995,-0.125176
0.0048,-0.125176
0.0048005,-0.13162
0.004801,-0.127324
0.0048015,-0.129472
0.004802,-0.123028
0.0048025,-0.13162
0.004803,-0.125176
0.0048035,-0.13162
0.004804,-0.123028
0.0048045,-0.129472
0.004805,-0.125176
0.0048055,-0.123028
0.004806,-0.129472
0.0048065,-0.125176
0.004807,-0.133768
0.0048075,-0.125176
0.004808,-0.129472
0.0048085,-0.125176
0.004809,-0.13162
0.0048095,-0.123028
0.00481,-0.127324
0.0048105,-0.127324
0.004811,-0.129472
0.0048115,-0.127324
0.004812,-0.125176
0.0048125,-0.129472
0.004813,-0.125176
0.0048135,-0.129472
0.004814,-0.118732
0.0048145,-0.129472
0.004815,-0.125176
0.0048155,-0.129472
0.004816,-0.125176
0.0048165,-0.127324
0.004817,-0.129472
0.0048175,-0.123028
0.004818,-0.125176
0.0048185,-0.123028
0.004819,-0.133768
0.0048195,-0.123028
0.00482,-0.127324
0.0048205,-0.12088
0.004821,-0.127324
0.0048215,-0.118732
0.004822,-0.129472
0.0048225,-0.118732
0.004823,-0.127324
0.0048235,-0.12088
0.004824,-0.123028
0.0048245,-0.125176
0.004825,-0.123028
0.0048255,-0.127324
0.004826,-0.118732
0.0048265,-0.127324
0.004827,-0.125176
0.0048275,-0.129472
0.004828,-0.12088
0.0048285,-0.125176
0.004829,-0.127324
0.0048295,-0.125176
0.00483,-0.123028
0.0048305,-0.12088
0.004831,-0.133768
0.0048315,-0.12088
0.004832,-0.129472
0.0048325,-0.116583
0.004833,-0.13162
0.0048335,-0.125176
0.004834,-0.123028
0.0048345,-0.123028
0.004835,-0.129472
0.0048355,-0.125176
0.004836,-0.123028
0.0048365,-0.125176
0.004837,-0.125176
0.0048375,-0.13162
0.004838,-0.125176
0.0048385,-0.127324
0.004839,-0.125176
0.0048395,-0.129472
0.00484,-0.127324
0.0048405,-0.125176
0.004841,-0.125176
0.0048415,-0.127324
0.004842,-0.125176
0.0048425,-0.123028
0.004843,-0.129472
0.0048435,-0.125176
0.004844,-0.13162
0.0048445,-0.125176
0.004845,-0.13162
0.0048455,-0.125176
0.004846,-0.13162
0.0048465,-0.123028
0.004847,-0.133768
0.0048475,-0.127324
0.004848,-0.127324
0.0048485,-0.129472
0.004849,-0.13162
0.0048495,-0.13162
0.00485,-0.127324
0.0048505,-0.13162
0.004851,-0.127324
0.0048515,-0.133768
0.004852,-0.125176
0.0048525,-0.129472
0.004853,-0.123028
0.0048535,-0.127324
0.004854,-0.127324
0.0048545,-0.125176
0.004855,-0.13162
0.0048555,-0.125176
0.004856,-0.129472
0.0048565,-0.127324
0.004857,-0.13162
0.0048575,-0.123028
0.004858,-0.127324
0.0048585,-0.125176
0.004859,-0.133768
0.0048595,-0.12088
0.00486,-0.129472
0.0048605,-0.125176
0.004861,-0.125176
0.0048615,-0.125176
0.004862,-0.125176
0.0048625,-0.13162
0.004863,-0.125176
0.0048635,-0.13162
0.004864,-0.127324
